Jaz Data File
++++++++++++++++++++++++++++++++++++
Date: Fri Jun 04 13:37:56 2021
User: jaz
Dark Spectrum Present: Yes
Reference Spectrum Present: Yes
Processed Spectrum Present: Yes
Spectrometers: JAZA3586
Integration Time (usec): 30700 (JAZA3586)
Spectra Averaged: 10 (JAZA3586)
Boxcar Smoothing: 1 (JAZA3586)
Correct for Electrical Dark: No (JAZA3586)
Strobe/Lamp Enabled: Yes (JAZA3586)
Correct for Detector Non-linearity: No (JAZA3586)
Correct for Stray Light: No (JAZA3586)
Number of Pixels in Processed Spectrum: 2048
>>>>>Begin Processed Spectral Data<<<<<
W	D	R	S	P
191.335022	0.000000	0.000000	0.000000	0.000000
191.713211	290.375031	294.164459	294.833221	117.648102
192.091385	586.397034	587.808777	596.725159	731.586670
192.469528	886.431458	888.140381	891.261230	282.620819
192.847641	899.657288	900.549011	897.725525	-216.632446
193.225739	907.161926	913.180420	893.861755	-220.988373
193.603790	918.233093	923.137024	906.270325	-243.942444
193.981842	924.771729	924.102966	907.607727	2566.532715
194.359863	931.310242	928.486816	915.335205	565.803406
194.737854	934.653809	925.366150	922.691162	128.801529
195.115829	935.174011	929.155518	927.743713	123.457764
195.493774	934.951111	928.561096	926.183411	137.209396
195.871704	940.003723	937.700378	917.044128	996.793701
196.249603	938.814880	935.991394	919.719055	676.320801
196.627457	935.025391	938.889160	927.149353	-203.843353
197.005310	920.982178	929.972900	931.310242	114.874680
197.383133	924.548767	937.551758	933.093506	65.713638
197.760910	929.972839	945.502136	924.845947	-33.014320
198.138687	931.756165	951.372070	924.325867	-37.878944
198.516449	930.195801	942.307129	922.096741	-66.871773
198.894180	923.359863	927.223694	926.703613	86.539764
199.271866	918.010193	920.759338	919.793457	64.866127
199.649536	919.273254	924.548828	918.678894	-11.266270
200.027191	918.976074	921.428040	914.072083	-200.002487
200.404816	923.805725	929.304016	921.725342	-37.836906
200.782410	924.177246	933.687988	924.771667	6.250000
201.159988	923.582764	952.189270	935.471191	41.558475
201.537537	923.731445	956.944763	937.848938	42.505516
201.915070	915.632385	959.916809	939.260742	53.355907
202.292557	918.010071	958.579407	938.889160	51.465199
202.670029	919.793457	961.402893	938.443359	44.821331
203.047485	918.530273	956.944641	933.019287	37.717693
203.424911	913.403320	959.619629	928.040955	31.672010
203.802292	911.917297	958.505066	919.347595	15.949032
204.179688	908.647949	966.529785	920.610657	20.667463
204.557037	911.397217	959.619629	919.570496	16.949129
204.934357	906.641785	962.443115	924.400208	31.824371
205.311661	908.722351	953.303894	922.394043	30.666708
205.688934	910.654114	957.687744	928.858337	38.704697
206.066177	911.397156	956.870422	927.595215	35.621059
206.443390	906.418945	960.288330	930.344421	44.413864
206.820587	905.304382	957.984924	922.616882	32.863178
207.197769	904.932861	956.573242	924.697327	38.273277
207.574921	910.059753	965.638184	914.517883	8.021331
207.952042	908.350769	968.610291	907.161926	-1.972871
208.329147	904.412781	961.477234	896.090820	-14.583440
208.706223	918.233093	968.164490	908.722351	-19.047619
209.083267	914.666504	964.226379	916.746887	4.197717
209.460297	920.164856	964.375000	914.889343	-11.932811
209.837280	904.784363	950.108887	902.778076	-4.426492
210.214264	907.830750	954.492737	895.942139	-25.478149
210.591217	904.858582	955.161438	913.254700	16.691135
210.968124	904.709961	961.625793	920.090637	27.023546
211.345016	901.514893	961.848694	920.610779	31.650394
211.721893	901.737793	969.056152	913.774841	17.880781
212.098724	902.778076	963.409119	907.533447	7.843129
212.475555	905.378723	967.941589	908.796570	5.463059
212.852356	903.223938	969.947754	911.842957	12.917455
213.229126	908.425110	969.056152	915.929688	12.377451
213.605865	907.682068	963.037598	908.870911	2.147650
213.982590	908.870911	955.310059	901.514954	-15.839992
214.359283	904.561340	954.789978	896.759583	-15.532490
214.735931	907.087646	952.783752	909.242371	4.715334
215.112579	912.214539	956.350281	912.214539	0.000000
215.489197	902.406555	959.693909	918.455994	28.015675
215.865799	899.508789	964.895203	921.130859	33.068138
216.242355	891.632629	965.415283	926.034851	46.626434
216.618896	894.010315	957.464844	925.068848	48.946125
216.995407	896.239441	954.269836	915.112305	32.522377
217.371902	899.954529	948.919983	913.403320	27.465878
217.748367	901.886414	949.811707	910.951355	18.914734
218.124802	895.942200	947.359680	916.152527	39.306335
218.501236	895.645020	954.566956	914.740723	32.408478
218.877609	905.527344	964.226379	919.050354	23.037874
219.253983	911.620117	975.371826	920.685059	14.219134
219.630295	911.620117	978.789734	917.267090	8.407034
220.006592	906.344543	971.136536	915.335266	13.876287
220.382889	901.291992	971.582336	914.146423	18.287621
220.759140	905.081482	967.198547	915.706726	17.105194
221.135391	903.372559	971.136536	916.969910	20.065752
221.511581	909.242432	961.997314	918.307312	17.183018
221.887772	907.236267	960.808411	912.808899	10.402107
222.263931	913.774902	963.409119	911.620056	-4.341453
222.640060	912.065918	968.090149	914.294922	3.978642
223.016159	910.951416	971.210754	924.325867	22.194818
223.392212	906.790344	971.730957	923.137024	25.171736
223.768265	902.778015	978.566833	920.610657	23.529383
224.144302	906.567444	982.876404	912.437439	7.692406
224.520294	910.579834	988.300476	909.316650	-1.625287
224.896286	907.459167	985.551270	911.099915	4.662119
225.272217	904.487061	988.151855	915.409485	13.054982
225.648148	901.143372	988.671936	922.765442	24.702873
226.024048	908.350769	988.077637	918.827454	13.140720
226.399902	910.059753	987.408875	915.855286	7.492693
226.775772	905.527344	995.359314	913.254700	8.602011
227.151581	902.852356	1007.024719	914.815002	11.483513
227.527374	894.902039	1014.380676	917.712891	19.091991
227.903137	896.165039	1030.504395	916.969910	15.486802
228.278870	898.988586	1044.919067	918.976013	13.696540
228.654572	896.016418	1060.299683	918.307312	13.568572
229.030273	893.415833	1062.454468	924.845886	18.593414
229.405930	895.793518	1063.569214	924.920227	17.360506
229.781555	903.892578	1068.398804	929.006897	15.266485
230.157181	913.997742	1072.931274	924.102966	6.358145
230.532761	913.849121	1073.599976	917.489990	2.279092
230.908325	915.409485	1064.312134	912.883301	-1.696534
231.283859	911.471497	1056.658813	911.768738	0.204729
231.659332	911.694397	1052.052124	921.650940	7.093691
232.034821	903.892578	1049.377319	923.657043	13.585250
232.410263	898.096985	1045.439331	924.994446	18.255079
232.785690	888.883484	1039.643677	918.827393	19.861946
233.161087	889.329285	1041.947144	913.106140	15.579340
233.536469	900.846191	1047.148193	917.564270	11.427102
233.911804	901.143372	1060.522827	923.434265	13.986052
234.287140	901.886414	1064.535034	934.430969	20.009119
234.662430	892.152771	1061.414429	928.412537	21.422316
235.037704	898.394226	1063.569214	928.635437	18.308590
235.412933	906.938965	1061.785889	920.684998	8.877175
235.788162	906.938965	1067.878540	920.239197	8.264115
236.163345	908.796570	1060.745605	921.725281	8.508584
236.538513	901.069153	1064.312134	920.090576	11.652215
236.913635	895.867920	1073.377197	919.719055	13.436557
237.288742	892.524353	1080.138672	917.044250	13.069310
237.663834	895.570740	1092.250000	930.790222	17.907064
238.038879	900.251770	1087.866089	937.254578	19.722805
238.413910	903.818298	1096.039429	933.093567	15.229995
238.788910	905.155701	1097.971313	931.013123	13.410439
239.163879	907.384766	1111.345825	929.007019	10.601168
239.538834	905.898743	1119.147461	929.824219	11.219517
239.913757	906.047363	1138.763550	924.771667	8.045982
240.288651	909.539551	1160.014038	929.229797	7.861178
240.663528	906.121643	1188.323364	932.647766	9.399703
241.038361	900.400391	1210.094116	930.567200	9.740852
241.413177	897.279602	1237.734741	932.127625	10.235717
241.787979	901.514893	1268.644653	931.830383	8.257432
242.162735	907.904968	1314.638062	939.186340	7.690885
242.537476	909.019470	1344.582031	928.189636	4.401243
242.912170	906.938965	1363.380493	926.183411	4.216191
243.286865	903.521057	1361.745850	920.982239	3.810615
243.661514	903.372498	1346.811035	934.282410	6.970507
244.036148	910.134033	1335.591309	938.146179	6.584009
244.410751	911.991638	1318.427368	945.279297	8.190141
244.785339	908.127930	1327.863892	936.288757	6.709177
245.159882	905.675964	1339.157959	941.564148	8.279048
245.534378	906.641846	1374.600220	934.951172	6.049540
245.908890	908.870850	1432.853638	943.644531	6.636417
246.283356	909.242371	1516.518555	936.957336	4.563816
246.657791	908.053528	1598.623047	939.929443	4.615888
247.032196	910.282654	1666.907227	936.957336	3.525485
247.406586	909.019531	1703.761353	941.192566	4.048237
247.780960	909.985413	1715.204102	942.604309	4.050936
248.155289	910.505554	1695.513794	936.140076	3.265510
248.529602	906.195984	1655.018677	939.855164	4.494946
248.903870	905.898743	1599.588989	944.461914	5.559134
249.278122	910.728455	1532.493652	951.817871	6.608510
249.652344	910.282532	1478.624023	940.301086	5.281781
250.026550	914.517883	1438.946411	937.105957	4.307178
250.400711	908.945129	1419.033325	938.814941	5.855813
250.774857	910.431213	1411.454468	948.994324	7.696870
251.148987	905.304382	1426.017944	943.793152	7.391543
251.523071	902.257996	1457.224976	948.994385	8.421472
251.897125	899.805969	1495.490845	948.845764	8.232507
252.271164	896.313782	1516.741577	954.641357	9.401187
252.645187	899.360168	1517.484497	949.291504	8.077879
253.019165	906.790466	1494.822266	955.978760	8.364903
253.393112	907.904968	1476.469360	960.882813	9.317826
253.767044	903.372498	1455.664551	959.025208	10.076681
254.140930	894.976257	1439.243774	954.492737	10.935152
254.514801	902.852356	1423.268555	950.257507	9.109084
254.888657	908.499329	1417.844604	949.663086	8.081700
255.262466	909.539551	1426.835083	953.081055	8.417143
255.636276	903.149597	1434.934204	958.579407	10.423357
256.010010	904.858582	1458.636719	961.254333	10.183817
256.383759	909.539551	1485.608765	959.248047	8.628910
256.757446	915.335205	1529.595825	952.412292	6.036051
257.131134	907.830750	1568.827759	958.059265	7.598902
257.504791	910.356934	1631.464844	952.932373	5.904171
257.878418	908.053528	1711.117554	957.762024	6.189855
258.252014	911.248596	1809.196899	955.755859	4.956551
258.625580	909.019531	1926.372437	968.461670	5.842824
258.999115	901.886414	2067.621826	982.207703	6.890182
259.372650	904.932800	2236.586182	992.535828	6.578516
259.746124	900.549011	2375.755127	993.650330	6.311072
260.119598	897.799805	2457.636719	997.737000	6.406900
260.493042	900.697571	2459.940186	1000.931946	6.428401
260.866425	902.332275	2388.312256	1005.910339	6.970354
261.239838	908.870911	2272.251709	993.501709	6.207422
261.613159	900.697571	2137.837891	983.470886	6.690697
261.986511	903.966980	2037.157715	972.176758	6.019268
262.359802	900.697571	1970.285156	975.148926	6.960753
262.733063	897.502625	1942.718872	970.987976	7.030636
263.106293	896.239441	1929.864624	972.845520	7.411398
263.479523	907.682129	1914.038086	968.907471	6.083865
263.852692	912.957581	1896.279663	971.508057	5.954354
264.225861	911.917297	1879.487305	966.901306	5.682691
264.598969	900.697571	1885.728882	970.467773	7.083044
264.972076	894.010315	1907.573853	965.563782	7.059594
265.345154	901.143372	1958.173828	964.597900	6.003093
265.718201	903.149597	2023.040161	960.139832	5.088911
266.091217	913.031921	2088.054932	970.022034	4.850128
266.464203	906.270325	2145.565430	983.396484	6.223389
266.837158	908.276428	2190.146973	981.093079	5.680499
267.210114	903.818298	2228.784424	976.337708	5.473303
267.583038	908.647949	2253.155762	967.049866	4.343740
267.955902	911.397156	2267.644775	975.297546	4.711558
268.328766	912.511719	2270.022461	979.532715	4.937051
268.701569	906.716125	2277.526855	984.288086	5.658838
269.074371	906.939026	2296.399658	974.405823	4.855610
269.447144	910.505554	2342.541992	980.721619	4.903232
269.819885	911.620117	2416.101563	975.148926	4.222638
270.192596	911.843018	2523.320313	988.374817	4.749170
270.565277	907.384766	2670.588135	985.848450	4.450064
270.937927	908.202148	2812.358154	997.068176	4.666951
271.310577	904.041199	2922.845947	1000.040344	4.755247
271.683136	904.784180	2979.093018	1004.721375	4.817855
272.055725	901.589172	2992.021729	1001.526367	4.780694
272.428284	901.663513	2964.827148	1001.229187	4.825874
272.800812	901.737793	2915.787354	1003.755554	5.065305
273.173279	901.886414	2842.376221	1003.755554	5.249661
273.545776	900.994812	2804.555908	1002.640930	5.339787
273.918152	901.514893	2764.803955	995.062012	5.020537
274.290558	904.487000	2763.021240	997.439758	5.001401
274.662964	905.452942	2738.798096	996.250793	4.952578
275.035278	902.555176	2755.516357	994.021790	4.936240
275.407593	907.236267	2785.460205	996.845276	4.770944
275.779907	906.195984	2853.150391	997.885559	4.709385
276.152161	907.384766	2912.963867	1010.219727	5.127445
276.524384	897.056702	2960.666260	1009.922546	5.469341
276.896606	899.285828	2994.325439	1008.139221	5.195768
277.268799	900.474670	2998.635010	994.467590	4.479778
277.640930	901.217773	3007.253906	991.718445	4.297204
278.013031	904.561340	3017.210693	991.495605	4.114941
278.385162	903.818298	3042.399170	995.062195	4.266563
278.757233	901.069092	3051.984375	992.238586	4.238637
279.129272	899.954590	3071.748779	992.981628	4.283419
279.501282	899.731628	3105.705078	996.176575	4.371991
279.873230	905.378662	3175.475342	997.885498	4.075017
280.245178	911.025696	3283.883057	1004.349915	3.932989
280.617126	917.341370	3417.182373	1009.551086	3.688623
280.988983	918.233093	3555.756836	1019.804871	3.851028
281.360870	914.369324	3686.306641	1026.566406	4.047606
281.732697	912.660339	3783.643311	1033.253662	4.200419
282.104492	911.917236	3835.803711	1039.495239	4.363302
282.476288	914.146423	3831.196533	1037.488892	4.228329
282.848053	912.214539	3815.964844	1037.860474	4.327023
283.219757	911.620117	3812.769775	1032.064819	4.151620
283.591461	909.985413	3805.191406	1026.417847	4.021560
283.963135	907.830750	3818.119873	1027.309448	4.105390
284.334747	907.087646	3878.601807	1026.269165	4.010801
284.706360	900.771912	3982.997314	1029.984375	4.192181
285.077942	897.651123	4096.309082	1029.835815	4.132505
285.449524	901.737793	4188.444336	1028.498291	3.856764
285.821014	900.177429	4207.986328	1032.659302	4.005125
286.192535	903.075256	4252.790527	1035.779907	3.961669
286.563995	896.536621	4252.790527	1038.826294	4.239538
286.935425	898.691406	4246.771973	1039.123413	4.194404
287.306824	905.007080	4154.339355	1035.854126	4.026890
287.678223	912.957520	4069.114258	1034.962646	3.865623
288.049561	915.781006	4006.625244	1037.340332	3.932884
288.420898	910.654114	3983.368408	1029.241211	3.859360
288.792145	913.626282	4018.959717	1032.733521	3.835570
289.163452	912.660339	4134.500488	1033.402222	3.747606
289.534668	912.808899	4292.839355	1049.600220	4.047044
289.905914	908.870911	4434.980957	1058.962280	4.256571
290.277039	914.220703	4534.249512	1063.792114	4.131774
290.648193	910.208313	4581.431641	1061.711548	4.126778
291.019318	903.743958	4572.960938	1061.488647	4.299138
291.390381	901.886414	4503.784668	1055.098633	4.253652
291.761475	905.007141	4411.426758	1049.600220	4.123667
292.132507	910.654236	4352.875977	1052.275024	4.114226
292.503510	901.143494	4340.616211	1051.383423	4.368109
292.874481	905.378662	4400.652832	1056.436035	4.321760
293.245422	907.236267	4506.088379	1060.522583	4.259311
293.616364	912.734680	4680.476563	1065.278198	4.048672
293.987213	910.208313	4840.153809	1067.507202	4.002572
294.358093	906.567566	4956.140137	1054.801392	3.660481
294.728943	908.202148	5062.838867	1067.061401	3.823662
295.099731	910.356873	5194.503418	1075.531860	3.855494
295.470490	910.133972	5331.814941	1090.318115	4.075015
295.841248	905.007141	5464.296875	1088.237671	4.018839
296.211975	903.298157	5576.196777	1093.736084	4.075371
296.582642	904.264099	5709.569824	1098.119995	4.034205
296.953308	904.412659	5781.643066	1098.268555	3.974713
297.323883	907.979187	5770.943848	1097.005371	3.887056
297.694519	902.183594	5639.873535	1088.237671	3.927105
298.065063	910.282532	5491.268066	1087.346069	3.865185
298.435608	903.743958	5310.118652	1082.219238	4.050388
298.806122	896.239319	5126.516113	1075.754883	4.243589
299.176575	900.325989	4927.979004	1062.826050	4.034609
299.547028	905.007141	4815.781738	1049.228760	3.687802
299.917450	913.106201	4759.460938	1044.101807	3.405708
300.287872	908.499329	4750.247559	1047.816895	3.626410
300.658234	905.081543	4722.829590	1056.213257	3.958661
301.028564	907.384827	4699.052246	1054.206909	3.872230
301.398865	906.047424	4647.337891	1056.436035	4.019699
301.769135	906.196045	4590.199219	1048.559937	3.864380
302.139374	905.452942	4539.079590	1058.962402	4.224690
302.509583	895.719299	4489.964844	1057.847778	4.510779
302.879791	897.428223	4420.417480	1060.819946	4.637872
303.249939	901.366272	4371.897949	1053.761230	4.391113
303.620087	911.471497	4335.117676	1049.303101	4.025872
303.990173	910.356934	4337.272949	1057.773560	4.301729
304.360260	910.579834	4326.201660	1059.854004	4.370337
304.730286	905.229980	4312.530273	1053.686890	4.357025
305.100281	898.914307	4302.053223	1046.182373	4.327419
305.470276	893.118652	4330.659668	1038.974976	4.243042
305.840179	894.456116	4362.906738	1051.457886	4.526568
306.210144	899.657410	4403.848145	1046.479614	4.189903
306.579987	904.338379	4423.314941	1061.117188	4.455239
306.949890	909.836914	4466.262207	1062.974731	4.305948
307.319702	908.573730	4555.722656	1083.110840	4.785577
307.689484	909.688232	4673.715332	1096.633789	4.966637
308.059265	916.152527	4802.630371	1118.627441	5.209728
308.429016	918.233093	4897.069336	1143.593140	5.663969
308.798737	920.313477	4971.595215	1171.010864	6.188100
309.168396	905.675842	5032.746582	1216.409790	7.529164
309.538055	902.406555	5069.823242	1255.864624	8.481467
309.907684	892.524231	5069.674805	1313.969360	10.089297
310.277313	897.131042	5084.312012	1367.318726	11.229218
310.646851	901.143372	5071.829590	1428.692749	12.648983
311.016388	907.830566	5064.473145	1478.847046	13.737445
311.385895	905.007141	4996.263184	1533.533813	15.362682
311.755371	905.675842	4930.431641	1592.753052	17.071278
312.124817	907.310547	4863.855957	1637.780640	18.462320
312.494232	911.322815	4804.934082	1683.328125	19.827488
312.863617	906.864746	4780.265625	1721.965454	21.043541
313.232971	900.251770	4804.339844	1791.067017	22.817499
313.602295	899.360168	4883.323730	1851.623657	23.902414
313.971619	895.645020	4987.792969	1922.285645	25.088062
314.340820	897.874023	5022.641113	1962.334839	25.806568
314.710083	899.360168	5028.213867	1993.244751	26.493662
315.079285	907.607727	4951.162109	1975.189331	26.402058
315.448486	911.620056	4873.218262	1946.433960	26.121124
315.817596	909.390930	4723.201172	1889.072266	25.687731
316.186707	904.784241	4579.054199	1840.924194	25.478256
316.555786	907.087585	4472.949219	1804.813110	25.175558
316.924866	912.808899	4415.884766	1802.881226	25.408308
317.293884	918.530273	4422.126465	1842.707520	26.377962
317.662872	914.443665	4445.605957	1902.669800	27.985859
318.031830	913.329102	4509.506348	1948.588867	28.787785
318.400757	911.248535	4545.097656	1980.836060	29.434010
318.769684	905.007141	4576.229980	1974.074585	29.120197
319.138550	903.521057	4565.084961	1975.634888	29.280214
319.507416	901.366272	4539.524902	1953.641479	28.923288
319.876190	906.195984	4483.797852	1959.511353	29.441942
320.244995	908.499329	4397.160645	1976.006470	30.599333
320.613770	908.425110	4349.161133	2024.600586	32.440022
320.982483	910.282654	4342.622559	2098.754639	34.625706
321.351166	902.629395	4394.634277	2192.598877	36.940655
321.719818	895.867920	4458.237793	2296.177002	39.308357
322.088440	894.084656	4582.694824	2416.398682	41.270668
322.457062	894.902039	4755.596680	2552.150146	42.926163
322.825623	903.372559	4959.111816	2698.823486	44.269386
323.194183	904.264099	5104.968262	2825.137939	45.727425
323.562653	898.914307	5203.567871	2934.660156	47.291748
323.931183	899.211487	5218.577637	3013.346924	48.945503
324.299591	894.827637	5180.014160	3092.479248	51.284855
324.668060	905.081482	5083.271973	3130.522217	53.263268
325.036407	905.378601	5012.535645	3178.595947	55.347706
325.404755	909.539551	4941.428223	3198.880859	56.780865
325.773102	906.939026	4882.208984	3230.162109	58.441895
326.141388	907.236267	4790.519531	3221.394531	59.592827
326.509674	902.852356	4685.604004	3188.998291	60.436058
326.877899	900.474670	4603.945313	3136.020752	60.363544
327.246124	900.474670	4542.645508	3122.200439	61.000042
327.614288	911.471497	4500.367676	3116.627686	61.443855
327.982422	914.517883	4485.135254	3153.630615	62.709400
328.350525	921.205261	4500.887207	3192.862305	63.459743
328.718628	916.449768	4556.763184	3272.069092	64.709244
329.086700	915.260925	4619.103027	3328.761719	65.162086
329.454712	905.898743	4683.448730	3371.634766	65.273422
329.822693	899.880188	4709.900879	3396.080078	65.516701
330.190674	897.205383	4747.201172	3441.553467	66.087036
330.558563	902.332275	4778.779785	3477.961670	66.443039
330.926483	909.168152	4874.184082	3512.364014	65.654106
331.294312	911.694336	4980.659668	3568.387939	65.291626
331.662231	908.796631	5100.212891	3658.294678	65.598312
332.029999	905.007141	5224.669922	3758.751709	66.064064
332.397766	905.304382	5300.087402	3816.113281	66.233276
332.765503	903.000977	5360.049805	3844.719971	66.001495
333.133240	901.069153	5365.548340	3868.422607	66.465843
333.500916	898.022705	5373.052734	3881.350830	66.666100
333.868561	901.663513	5352.248047	3889.004150	67.122437
334.236176	901.291992	5312.644531	3864.410156	67.170288
334.603790	907.310547	5261.227051	3852.669922	67.648506
334.971344	899.508789	5224.893066	3822.206055	67.570808
335.338867	907.607727	5211.741699	3803.110107	67.272591
335.706360	901.366394	5208.100098	3782.156982	66.890373
336.073853	906.939026	5227.122559	3800.361328	66.974525
336.441284	905.081482	5249.562012	3844.125732	67.650070
336.808655	909.093750	5300.904785	3878.379639	67.609604
337.176086	911.099915	5344.223145	3914.490234	67.748863
337.543396	906.493164	5387.393066	3930.539795	67.487488
337.910706	901.812073	5391.033691	3941.833740	67.718239
338.277954	905.007141	5373.646973	3927.418701	67.636055
338.645264	901.960754	5333.820801	3902.230469	67.697762
339.012421	905.824524	5286.415527	3866.862061	67.594482
339.379669	896.982422	5194.354980	3820.645752	68.033745
339.746796	903.669678	5091.520020	3749.984131	67.965996
340.113953	911.174316	5016.622559	3707.259766	68.106705
340.481018	920.908020	4996.560547	3678.281982	67.654785
340.848114	920.685059	4999.978516	3693.365234	67.969620
341.215118	908.945129	5054.888672	3742.033447	68.333984
341.582153	901.143372	5189.971191	3847.171875	68.690765
341.949066	897.948425	5395.046387	3982.700195	68.594269
342.316010	901.663574	5656.592285	4143.342285	68.175125
342.682922	907.459167	5954.248535	4317.656738	67.571625
343.049835	911.991516	6315.508301	4518.942871	66.751923
343.416656	922.171082	6640.434082	4677.728027	65.676529
343.783478	920.016296	6877.683105	4763.547363	64.514030
344.150269	921.725281	7011.873535	4738.136230	62.665318
344.516998	909.762512	7046.350098	4634.483887	60.696949
344.883728	908.202148	6956.294922	4497.543457	59.346664
345.250427	896.833801	6822.847656	4369.445801	58.599461
345.617065	898.171204	6636.718750	4284.740723	59.014404
345.983704	901.886414	6481.797363	4249.595703	59.995743
346.350281	911.917236	6311.273438	4257.471680	61.962097
346.716827	908.202148	6173.515625	4284.369141	64.120911
347.083405	903.000977	6074.321777	4325.012207	66.172867
347.449860	907.384766	6012.130371	4349.384277	67.427444
347.816376	913.031799	5989.468750	4389.804688	68.488449
348.182770	910.877014	6000.613281	4383.860840	68.235046
348.549194	907.533386	6034.644043	4438.250488	68.863678
348.915558	908.573547	6122.023926	4490.039063	68.696648
349.281921	903.298157	6216.982910	4556.539551	68.751572
349.648193	899.657410	6265.726074	4595.920410	68.882141
350.014526	896.759583	6291.137207	4607.363281	68.786507
350.380737	906.344666	6324.499512	4630.843262	68.741089
350.746948	903.669678	6398.652832	4642.137207	68.034195
351.113159	902.703796	6453.265625	4686.569824	68.170860
351.479309	903.372498	6514.119629	4727.956543	68.165321
351.845428	902.332275	6626.911621	4823.138184	68.490730
352.211517	903.075256	6792.382813	4930.282715	68.381683
352.577576	901.886414	6945.149902	5047.383789	68.597000
352.943604	905.527283	7079.488281	5158.912109	68.892319
353.309601	908.945251	7215.908691	5273.784668	69.206673
353.675537	914.592102	7386.730469	5402.253418	69.338158
354.041473	913.626221	7595.224609	5515.044922	68.867035
354.407379	905.824402	7738.703125	5599.898438	68.698341
354.773254	895.719238	7922.973145	5676.950684	68.038406
355.139038	892.672852	8086.438965	5733.866699	67.297073
355.504913	900.623291	8357.570313	5825.778809	66.047874
355.870636	899.583008	8640.663086	5917.988281	64.828232
356.236389	904.115540	8947.754883	6023.201660	63.641418
356.602081	901.737793	9233.822266	6105.677246	62.456638
356.967804	904.932861	9439.195313	6161.701660	61.596046
357.333405	905.601563	9567.739258	6215.422363	61.299198
357.699036	908.127869	9601.249023	6253.391113	61.488426
358.064606	907.682068	9555.180664	6313.428223	62.512249
358.430176	911.843018	9467.282227	6391.892090	64.053391
358.795654	905.230042	9493.584961	6545.475098	65.673172
359.161163	907.161926	9689.297852	6810.066406	67.214905
359.526581	892.598633	10130.209961	7198.447266	68.262764
359.892029	894.307556	10713.413086	7667.743652	68.982208
360.257416	896.165039	11358.062500	8140.978027	69.249512
360.622772	906.567444	11898.762695	8509.742188	69.168846
360.988098	904.561340	12227.254883	8755.981445	69.342331
361.353394	902.926697	12358.549805	8841.726563	69.300461
361.718658	901.960754	12152.878906	8705.381836	69.358086
362.083893	907.607666	11691.534180	8354.226563	69.052948
362.449097	911.545837	10964.257813	7831.804199	68.839714
362.814209	903.372498	10224.425781	7261.827637	68.216057
363.179382	903.000977	9558.079102	6699.281738	66.969711
363.544434	906.641846	9102.604492	6231.100098	64.964401
363.909546	916.004089	8818.692383	5880.614746	62.821796
364.274536	914.072083	8631.003906	5642.548340	61.274044
364.639587	902.852478	8471.699219	5464.964844	60.274868
365.004517	900.103210	8370.499023	5379.740234	59.965191
365.369507	898.840027	8314.102539	5333.300293	59.801800
365.734344	899.360168	8296.865234	5370.005859	60.434505
366.099274	898.171326	8259.936523	5436.729492	61.650406
366.464081	903.223877	8226.500000	5530.871094	63.190945
366.828918	899.731628	8176.419434	5621.595215	64.890289
367.193665	902.555176	8110.142090	5644.703125	65.793839
367.558411	896.462341	8027.740723	5674.053223	66.994873
367.923126	905.452942	7920.596191	5654.882813	67.702538
368.287781	903.446777	7855.729004	5667.439941	68.524162
368.652435	908.202148	7787.519531	5663.650879	69.126755
369.017059	910.579895	7809.066406	5706.375000	69.519524
369.381653	915.186707	7831.209473	5748.727051	69.889015
369.746185	914.666504	7922.156250	5817.382813	69.963943
370.110687	911.174255	8001.288574	5873.704590	69.992249
370.475220	912.808899	8131.838379	5932.700684	69.536934
370.839661	907.979248	8194.030273	5964.205566	69.395981
371.204041	904.784241	8245.745117	5984.044434	69.190674
371.568451	910.579834	8239.280273	5963.313965	68.944481
371.932770	913.997742	8242.698242	5902.607910	68.069504
372.297150	908.945129	8200.642578	5811.884766	67.240028
372.661377	898.840027	8212.976563	5769.160645	66.587776
373.025696	900.474670	8240.394531	5759.501465	66.199997
373.389862	909.019531	8314.548828	5801.482422	66.065002
373.754059	909.242371	8405.717773	5859.215332	66.030670
374.118225	910.356934	8545.036133	5983.746094	66.451897
374.482361	912.957520	8731.312500	6157.466309	67.079437
374.846436	917.638489	8981.860352	6387.730469	67.831612
375.210510	913.774841	9305.895508	6680.854004	68.720161
375.574524	914.072021	9663.960938	6979.551270	69.320648
375.938538	909.316711	10009.468750	7266.657715	69.859718
376.302460	909.688293	10289.144531	7472.921875	69.974564
376.666412	909.762512	10462.195313	7600.351074	70.040672
377.030304	910.728516	10455.805664	7598.046875	70.060394
377.394196	917.118591	10307.348633	7486.518066	69.959938
377.757996	912.214539	10042.236328	7290.434082	69.859856
378.121796	909.539612	9728.901367	7074.881348	69.906898
378.485565	903.446777	9407.467773	6858.437988	70.025589
378.849304	899.434509	9169.698242	6685.386719	69.960915
379.212982	898.765808	9020.275391	6573.857910	69.877304
379.576630	901.291992	8960.461914	6528.831543	69.827782
379.940277	914.889404	8925.539063	6506.837891	69.806427
380.303864	916.969910	8904.289063	6476.670410	69.606590
380.667450	922.319641	8917.737305	6477.488281	69.479408
381.030945	908.796570	8943.373047	6504.906250	69.650337
381.394501	914.666504	8976.139648	6587.010254	70.363609
381.757935	908.425049	9012.994141	6657.820801	70.940170
382.121399	916.524109	9084.101563	6735.095703	71.239868
382.484741	919.644836	9265.327148	6856.283691	71.134247
382.848145	919.867676	9479.764648	6952.729004	70.478203
383.211487	914.220703	9641.743164	7071.019043	70.544632
383.574768	902.778015	9722.882813	7130.683594	70.610336
383.938019	900.920593	9742.944336	7185.593750	71.077324
384.301270	898.245605	9765.383789	7212.416504	71.208664
384.664459	900.326172	9798.374023	7217.171875	70.991364
385.027649	903.372559	9821.555664	7233.666504	70.981873
385.390778	918.233093	9963.325195	7293.703125	70.485413
385.753876	924.623047	10054.198242	7372.315918	70.624237
386.116943	924.325867	10170.110352	7432.575684	70.391541
386.479980	912.140198	10196.563477	7456.501465	70.487541
386.842987	906.790466	10222.048828	7453.157715	70.275742
387.205994	902.406555	10218.853516	7450.333496	70.283516
387.568909	906.938965	10188.240234	7429.083496	70.271881
387.931793	903.595398	10112.897461	7370.681152	70.223412
388.294678	900.400391	10063.634766	7360.056152	70.495369
388.657471	892.672913	10054.420898	7365.107910	70.646286
389.020294	893.936035	10144.327148	7454.123535	70.917953
389.383057	900.920410	10358.467773	7607.335938	70.910728
389.745819	905.527283	10599.506836	7776.448730	70.878235
390.108521	905.304382	10881.559570	7966.291504	70.777939
390.471191	902.778076	11170.746094	8203.762695	71.104469
390.833801	903.595398	11414.309570	8389.817383	71.224678
391.196442	905.081482	11597.911133	8544.812500	71.447227
391.558960	905.007141	11625.031250	8539.909180	71.220940
391.921509	905.452942	11605.266602	8482.472656	70.814499
392.284027	906.493164	11523.237305	8421.842773	70.787704
392.646484	903.595398	11487.573242	8365.966797	70.506310
393.008911	901.960754	11468.847656	8352.741211	70.510651
393.371307	896.759521	11499.089844	8339.959961	70.203438
393.733673	894.381836	11443.807617	8300.504883	70.204041
394.096008	895.199158	11329.827148	8256.147461	70.543465
394.458344	902.480774	11156.106445	8158.215332	70.762619
394.820587	901.514893	10937.360352	8023.950684	70.969955
395.182831	905.452942	10695.801758	7860.559082	71.040428
395.545013	894.976318	10438.417969	7677.328613	71.068207
395.907196	904.709961	10234.234375	7537.416504	71.093727
396.269287	911.694397	10138.754883	7448.328125	70.841995
396.631409	929.452698	10096.476563	7419.869629	70.801796
396.993469	927.372253	10081.988281	7408.277832	70.793854
397.355530	922.914063	10080.798828	7428.636719	71.039581
397.717499	914.443542	10130.358398	7457.392090	70.996193
398.079468	911.397156	10162.382813	7468.983887	70.885277
398.441376	905.155762	10168.847656	7467.274902	70.836983
398.803284	896.982422	10109.925781	7422.618652	70.831177
399.165131	896.313721	10073.666016	7403.374512	70.903458
399.526978	897.131042	10032.799805	7360.798340	70.751991
399.888763	899.211487	10029.381836	7352.699707	70.683113
400.250519	904.932861	10026.854492	7342.297363	70.570267
400.612244	905.007141	10065.937500	7374.247559	70.617722
400.973938	904.709961	10151.386719	7453.825684	70.826698
401.335602	898.468506	10269.824219	7531.175293	70.776390
401.697205	897.279602	10439.161133	7691.148926	71.200516
402.058807	902.257996	10628.335938	7831.804688	71.247086
402.420349	907.756348	10914.327148	8071.653809	71.591934
402.781860	910.951355	11184.492188	8229.621094	71.238045
403.143341	910.802734	11437.492188	8401.110352	71.155396
403.504822	919.570496	11625.700195	8504.689453	70.848373
403.866241	921.502441	11776.015625	8611.387695	70.845047
404.227631	917.861572	11894.602539	8667.263672	70.598389
404.588959	906.939026	11911.247070	8641.554688	70.287163
404.950287	905.081360	11856.633789	8567.178711	69.963570
405.311554	904.115540	11710.628906	8465.160156	69.967468
405.672821	900.771912	11618.641602	8382.386719	69.805054
406.034027	897.279602	11470.481445	8282.821289	69.851509
406.395203	902.480774	11304.565430	8174.859375	69.912697
406.756348	905.601563	11147.860352	8128.420410	70.519783
407.117493	903.446777	11087.601563	8116.234863	70.823631
407.478516	904.487000	11115.835938	8146.996094	70.926079
407.839600	909.465332	11181.519531	8175.156250	70.732597
408.200592	912.437317	11322.992188	8236.233398	70.349716
408.561554	907.013367	11488.315430	8247.676758	69.373917
408.922485	903.223877	11661.515625	8269.000977	68.466049
409.283417	907.310547	11770.963867	8283.862305	67.901207
409.644257	911.025635	11888.510742	8343.675781	67.708130
410.005096	903.669678	11944.385742	8416.790039	68.049210
410.365906	902.703674	11925.585938	8437.222656	68.353439
410.726715	897.279602	11867.258789	8462.633789	68.964157
411.087433	898.617126	11775.049805	8406.683594	69.030594
411.448120	901.886536	11737.377930	8319.898438	68.460320
411.808807	910.728516	11680.906250	8191.205566	67.598488
412.169434	919.793457	11654.233398	8049.956543	66.423248
412.530029	913.849182	11691.385742	7969.041016	65.462013
412.890564	909.168152	11802.168945	7964.360840	64.768127
413.251099	909.985535	11977.598633	8085.399902	64.832535
413.611572	915.335205	12169.671875	8305.781250	65.667542
413.972076	912.660339	12349.038086	8548.007813	66.763687
414.332489	908.053528	12471.637695	8758.433594	67.888809
414.692871	904.041260	12673.815430	8989.068359	68.693138
415.053223	903.075378	12847.312500	9155.729492	69.093185
415.413574	904.561340	13165.847656	9327.592773	68.696144
415.773834	904.932922	13420.112305	9341.709961	67.412354
416.134094	906.493225	13765.174805	9350.774414	65.669884
416.494263	907.161926	14103.622070	9257.896484	63.280109
416.854462	904.264160	14541.117188	9233.450195	61.078499
417.214630	901.663513	15044.890625	9282.490234	59.256821
417.574738	896.165100	15490.409180	9444.395508	58.572617
417.934784	900.920593	16005.102539	9755.427734	58.622883
418.294861	909.168152	16578.572266	10205.850586	59.330158
418.654846	912.140198	17272.189453	10768.395508	60.245876
419.014832	906.270325	17992.777344	11318.163086	60.936340
419.374756	901.514954	18765.228516	11842.070313	61.244579
419.734680	900.623291	19533.814453	12245.905273	60.887489
420.094543	898.840027	20145.251953	12449.198242	60.013046
420.454376	905.452942	20501.681641	12334.920898	58.324833
420.814148	903.075256	20688.033203	12077.089844	56.477325
421.173920	906.641785	20836.638672	11754.541992	54.430019
421.533691	903.966980	20935.757813	11478.209961	52.787308
421.893341	908.796570	20984.427734	11266.372070	51.592777
422.253021	910.505554	20956.712891	11175.128906	51.204815
422.612640	913.774902	20936.279297	11195.117188	51.348930
422.972260	900.251770	20962.283203	11265.852539	51.667751
423.331757	898.691406	21060.884766	11314.596680	51.660576
423.691315	897.279724	21176.943359	11278.855469	51.192051
424.050781	908.573730	21184.150391	11006.461914	49.803215
424.410248	919.273254	20979.226563	10505.661133	47.788685
424.769653	914.889404	20678.001953	9873.866211	45.331806
425.128998	911.917297	20260.048828	9316.000977	43.436153
425.488373	902.406555	19725.439453	8831.175781	42.122696
425.847656	899.657410	19234.375000	8497.779297	41.441174
426.206940	907.310547	18759.431641	8259.341797	41.182957
426.566193	904.338379	18339.917969	8116.457031	41.364376
426.925385	902.332214	17826.560547	7914.800293	41.434494
427.284576	894.679138	17338.837891	7642.109375	41.032383
427.643677	896.610901	16936.041016	7289.617188	39.858067
428.002777	896.388000	16666.322266	6878.425781	37.933178
428.361847	907.533386	16438.363281	6419.011719	35.487339
428.720856	905.007141	16208.840820	5957.146484	33.012245
429.079865	910.059753	16068.112305	5602.127441	30.954292
429.438812	901.440613	16055.332031	5383.604004	29.577641
429.797760	908.350769	16085.053711	5307.963379	28.989252
430.156616	917.490051	16010.377930	5307.740234	29.088203
430.515503	917.267151	15858.875977	5352.841797	29.686060
430.874268	918.604553	15823.061523	5406.414551	30.110523
431.233093	908.647949	15912.819336	5397.201172	29.915367
431.591827	905.155762	16130.971680	5326.984863	29.041655
431.950562	903.223877	16342.510742	5137.661621	27.426380
432.309204	908.573669	16499.216797	4895.211914	25.570709
432.667877	919.496094	16691.212891	4648.675293	23.644726
433.026459	919.347595	16737.876953	4453.185059	22.339861
433.385010	915.260925	16829.416016	4329.619629	21.454853
433.743561	913.180481	16805.716797	4263.490234	21.081026
434.102051	910.654236	16833.951172	4247.812012	20.957706
434.460510	911.174316	16836.476563	4229.607910	20.837492
434.818939	907.756348	16812.253906	4157.386230	20.432144
435.177338	905.973083	16775.845703	4019.554688	19.619448
435.535675	907.236267	16759.052734	3825.921143	18.412306
435.894012	909.985352	16763.064453	3558.580078	16.707130
436.252289	914.369324	17013.984375	3293.839844	14.779673
436.610535	913.551941	17120.312500	3033.037109	13.077784
436.968719	909.242371	17497.326172	2885.843018	11.915786
437.326935	902.778076	17768.900391	2822.017334	11.379255
437.685028	903.372498	18109.357422	2863.403564	11.391565
438.043152	906.121765	18322.009766	2970.325439	11.852416
438.401215	908.350769	18600.423828	3149.543701	12.667781
438.759277	906.716125	19026.400391	3352.910156	13.500203
439.117249	906.344543	19613.095703	3542.307861	14.090973
439.475250	911.322815	20152.160156	3659.037354	14.280639
439.833130	913.106140	20649.468750	3691.953857	14.079837
440.191071	912.363098	20818.583984	3610.592529	13.554705
440.548889	914.220703	20906.185547	3444.822998	12.658097
440.906708	907.459167	20772.439453	3215.895752	11.620633
441.264496	903.075256	20554.732422	2954.350342	10.438179
441.622223	897.576904	20219.626953	2690.130127	9.277241
441.979950	908.722351	19911.865234	2455.779297	8.141058
442.337616	912.437439	19695.421875	2283.025391	7.296966
442.695251	906.344543	19433.281250	2151.955322	6.723242
443.052887	902.629456	19305.705078	2087.237549	6.437012
443.410461	905.452942	19375.326172	2072.302734	6.317585
443.768005	908.499451	19654.333984	2082.407959	6.262237
444.125458	905.973145	19951.990234	2092.661865	6.230639
444.482941	902.034973	20350.994141	2112.574951	6.224189
444.840393	901.069092	20926.025391	2140.884521	6.191351
445.197754	904.115540	21447.480469	2180.784912	6.214510
445.555084	904.932861	21906.748047	2206.567871	6.197726
445.912415	910.356934	22149.568359	2262.072021	6.364244
446.269714	913.923523	22328.787109	2316.238525	6.548326
446.626953	918.827454	22299.361328	2397.154541	6.914361
446.984161	926.109070	22093.320313	2465.512939	7.272587
447.341309	922.765442	21838.611328	2535.134521	7.708840
447.698456	916.449707	21480.248047	2590.564453	8.141077
448.055542	908.870911	21256.595703	2631.728027	8.467075
448.412598	906.567566	20871.783203	2630.985107	8.637110
448.769653	908.573730	20497.814453	2574.217773	8.502851
449.126617	909.465332	19957.859375	2473.166016	8.209094
449.483582	912.585999	19600.687500	2359.705811	7.743536
449.840515	907.236267	19240.095703	2250.257813	7.325761
450.197388	900.326172	19037.769531	2150.394775	6.892199
450.554230	889.700867	18898.005859	2065.021240	6.526546
450.911041	903.298279	18861.671875	2001.120972	6.113153
451.267822	906.790466	18932.037109	1954.161621	5.810579
451.624573	916.226807	18984.568359	1929.938843	5.610432
451.981262	910.579773	18946.451172	1918.570679	5.588812
452.337921	918.827393	18766.638672	1929.715942	5.663936
452.694580	913.626282	18382.492188	1937.071899	5.858684
453.051147	910.059753	18142.865234	1951.635376	6.044145
453.407715	911.025635	17726.994141	1948.811646	6.171432
453.764221	909.019531	17586.710938	1965.752808	6.336208
454.120728	908.425049	17208.363281	1965.232544	6.483506
454.477142	902.109375	17166.232422	1976.675171	6.606970
454.833557	899.583008	17071.794922	1972.068359	6.631655
455.189911	901.217712	17103.296875	1983.139648	6.677673
455.546265	899.657410	17183.693359	1993.467773	6.717071
455.902557	902.852356	17209.548828	2015.907227	6.825754
456.258820	897.279602	17508.396484	2027.721313	6.805332
456.615051	899.360168	17807.687500	2059.374268	6.860608
456.971252	904.932861	18248.599609	2083.745361	6.796790
457.327393	909.093811	18852.755859	2131.819092	6.814246
457.683502	905.378662	19586.791016	2182.790771	6.837878
458.039612	907.756348	20663.736328	2256.276367	6.825882
458.395630	912.883301	21719.798828	2335.557373	6.837506
458.751648	917.787292	22642.195313	2387.346436	6.764553
459.107605	913.923523	23388.712891	2434.602783	6.766156
459.463562	915.038086	23618.087891	2435.420166	6.696818
459.819458	911.471497	23473.939453	2414.169678	6.660168
460.175323	913.923523	22740.646484	2337.786377	6.523484
460.531158	908.425110	21873.828125	2248.251709	6.390656
460.886932	906.790344	20979.150391	2148.537354	6.186353
461.242676	905.378601	20209.001953	2078.395508	6.076667
461.598419	908.276367	19646.382813	2024.823608	5.958699
461.954102	909.390930	19076.554688	2007.065063	6.042077
462.309723	903.075256	18633.265625	1984.254272	6.097955
462.665344	897.799805	18253.800781	1973.777466	6.199456
463.020905	902.257996	18060.763672	1959.065552	6.159089
463.376373	910.728455	18054.076172	1948.291626	6.052279
463.731873	920.536377	18048.947266	1948.143188	5.999429
464.087341	912.288818	18129.716797	1937.592163	5.955032
464.442749	909.911133	18253.798828	1930.161743	5.882480
464.798126	905.304382	18389.033203	1917.307495	5.788257
465.153503	900.994812	18539.273438	1912.031860	5.732062
465.508820	900.400391	18692.931641	1914.781250	5.701161
465.864105	895.719299	18824.669922	1915.598511	5.688449
466.219330	906.195984	19089.855469	1925.109375	5.603456
466.574524	901.589172	19122.400391	1911.214478	5.541056
466.929657	904.115540	18981.298828	1884.688477	5.424368
467.284790	913.477722	18761.806641	1849.320435	5.243308
467.639893	915.112305	18473.810547	1823.240234	5.171955
467.994934	912.734619	18321.044922	1808.825562	5.147490
468.349945	899.657410	18097.169922	1790.844238	5.182068
468.704926	896.610901	17942.546875	1777.098022	5.165379
469.059875	899.805908	17775.662109	1756.590454	5.076984
469.414764	901.589172	17649.943359	1750.051880	5.065947
469.769653	907.533386	17653.435547	1747.228516	5.014332
470.124451	908.276428	17728.257813	1744.404907	4.971043
470.479248	903.075256	17802.634766	1746.411133	4.990283
470.834015	900.920471	17874.263672	1757.110840	5.044323
471.188721	902.406555	18090.707031	1778.584351	5.097524
471.543365	908.202148	18396.908203	1816.924438	5.196052
471.898010	905.155701	18631.779297	1861.506226	5.394996
472.252625	900.400391	18924.087891	1912.775024	5.616912
472.607178	894.902039	19191.947266	1950.595093	5.769746
472.961700	894.530457	19345.160156	1981.727905	5.892468
473.316193	898.171326	19383.351563	2017.096069	6.053092
473.670654	903.149597	19289.431641	2032.402344	6.141822
474.025055	913.997742	19397.617188	2028.984375	6.032296
474.379456	914.294983	19466.644531	2026.978149	5.997532
474.733795	918.381653	19640.884766	2031.213501	5.943819
475.088104	910.951355	19913.056641	2057.070557	6.031538
475.442383	902.852356	20287.244141	2078.172852	6.063231
475.796570	896.462219	20675.548828	2103.212646	6.101144
476.150787	897.056702	21149.154297	2119.708252	6.037160
476.504944	907.756348	21589.398438	2132.042236	5.919674
476.859070	911.322815	22006.906250	2124.240479	5.749629
477.213135	916.226868	22249.728516	2111.237549	5.601569
477.567200	909.613953	22540.474609	2084.116943	5.429756
477.921173	907.384949	22776.681641	2072.154541	5.326049
478.275146	902.926697	22999.884766	2055.064697	5.214011
478.629089	907.459167	23301.630859	2062.271973	5.156756
478.983002	910.356934	23778.876953	2093.181885	5.172285
479.336823	911.248596	24470.189453	2140.289795	5.216878
479.690643	913.477600	25256.609375	2196.165527	5.269199
480.044403	902.703796	26280.576172	2266.975830	5.375833
480.398163	900.177429	27603.609375	2364.684082	5.484339
480.751862	898.691406	29446.759766	2475.246338	5.522458
481.105499	908.870911	31887.828125	2610.923340	5.494221
481.459137	913.923523	35504.214844	2820.903076	5.513048
481.812744	913.106140	40200.964844	3122.423096	5.623409
482.166290	909.019531	45694.015625	3505.973877	5.798715
482.519806	905.304382	50753.667969	3922.069092	6.051883
482.873291	898.394226	54665.109375	4298.561035	6.323925
483.226715	897.131042	57032.542969	4569.542969	6.542059
483.580139	905.527283	57867.703125	4648.006348	6.570112
483.933502	912.214539	57342.605469	4559.809570	6.463884
484.286804	922.988464	55630.152344	4316.616699	6.203261
484.640106	917.118469	53042.855469	4007.294189	5.928311
484.993347	913.329102	50227.300781	3685.934814	5.622353
485.346558	905.007141	48023.406250	3422.011719	5.341872
485.699738	902.852356	47031.468750	3264.341553	5.119359
486.052887	900.623291	47336.781250	3188.701172	4.927363
486.405975	904.115540	48345.140625	3195.834229	4.830669
486.759064	910.728333	49482.792969	3229.716064	4.774324
487.112061	913.254700	49975.562500	3264.341553	4.792043
487.464996	918.753113	49638.972656	3261.592529	4.808762
487.817963	919.644775	48438.167969	3214.781250	4.829983
488.170868	917.638611	46557.785156	3118.114014	4.821359
488.523743	904.487000	44306.121094	3008.888672	4.848669
488.876587	894.679138	42227.058594	2907.837158	4.870656
489.229401	898.840027	40863.453125	2876.778564	4.949224
489.582153	907.830627	40570.402344	2914.152588	5.058477
489.934845	911.917297	41173.445313	3016.095947	5.226276
490.287537	905.378662	42452.121094	3171.983154	5.455553
490.640198	901.217712	43847.894531	3329.059326	5.653153
490.992798	898.394226	44662.996094	3445.863281	5.820844
491.345337	909.911133	44533.113281	3494.457031	5.924705
491.697876	916.449768	43216.390625	3421.045898	5.921040
492.050354	919.421875	41067.707031	3275.784180	5.869148
492.402832	910.134033	38196.054688	3064.021240	5.776677
492.755219	910.208313	35118.214844	2850.252686	5.671317
493.107605	911.471497	32351.179688	2659.443115	5.559758
493.459930	915.632507	30268.548828	2510.020264	5.431787
493.812225	906.716064	28868.240234	2412.014893	5.383465
494.164490	910.505554	28053.140625	2377.315674	5.404081
494.516724	902.480896	27590.828125	2368.547852	5.493285
494.868896	904.784363	27564.750000	2402.875732	5.619255
495.221039	902.629456	27769.750000	2425.463867	5.668023
495.573120	917.861511	28077.291016	2443.593750	5.617689
495.925201	917.341370	28358.601563	2444.485352	5.565138
496.277222	915.260925	28533.134766	2425.240967	5.467402
496.629211	906.790466	28556.392578	2394.925537	5.382121
496.981140	913.923523	28431.490234	2345.291260	5.201651
497.333069	909.391113	28123.505859	2292.313232	5.081635
497.684967	908.870911	27697.083984	2232.128174	4.939700
498.036804	905.007141	27143.228516	2195.051025	4.916659
498.388580	907.087646	26626.306641	2175.212158	4.930649
498.740326	906.493164	26100.912109	2169.119385	5.011532
499.092072	902.183594	25637.263672	2156.042236	5.069151
499.443756	906.121643	25145.156250	2138.952637	5.086139
499.795410	907.310547	24776.615234	2123.274658	5.094259
500.147003	914.517822	24410.226563	2105.813477	5.070269
500.498566	907.682068	24079.208984	2095.188232	5.124850
500.850098	907.979187	23892.859375	2091.696045	5.149980
501.201599	900.474670	23732.664063	2102.469971	5.264477
501.553009	898.988586	23670.916016	2125.206543	5.384779
501.904449	905.527344	23618.455078	2153.144287	5.492981
502.255859	917.787292	23658.359375	2181.304932	5.556226
502.607178	925.886230	23784.228516	2208.202393	5.609839
502.958405	920.610657	23890.554688	2223.731689	5.673158
503.309692	905.378662	24019.916016	2236.214600	5.757571
503.660919	898.840027	24123.865234	2215.707031	5.670034
504.012115	894.381836	24096.521484	2191.038574	5.588522
504.363251	895.422119	24032.250000	2157.230957	5.453681
504.714294	899.657410	23847.162109	2132.711182	5.373367
505.065369	903.075195	23755.250000	2115.992920	5.307669
505.416443	912.585999	23578.109375	2103.510010	5.254342
505.767395	916.078186	23620.388672	2097.565674	5.203803
506.118317	913.923523	23612.662109	2107.447998	5.258109
506.469238	907.236145	23800.796875	2129.441650	5.338644
506.820160	899.360107	23960.177734	2162.506348	5.477456
507.170929	902.629395	24200.468750	2182.122314	5.491895
507.521729	903.743958	24417.210938	2185.614502	5.451644
507.872498	914.815125	24623.328125	2170.382324	5.295849
508.223236	911.768738	24949.218750	2153.961670	5.167740
508.573883	910.134033	25235.876953	2133.008057	5.027078
508.924500	904.709961	25526.031250	2133.974121	4.992682
509.275116	907.459167	25710.302734	2132.934082	4.940864
509.625702	907.236145	25945.617188	2146.679932	4.950176
509.976196	903.149597	26121.195313	2165.552979	5.005952
510.326660	906.716064	26364.388672	2198.468994	5.074121
510.677124	914.517883	26542.119141	2238.443848	5.166016
511.027557	919.941956	26751.283203	2281.167969	5.269669
511.377869	913.923523	26886.367188	2306.133545	5.360335
511.728180	909.836853	26896.173828	2316.684570	5.413797
512.078430	910.208313	26807.603516	2297.142822	5.355498
512.428650	915.409607	26658.333984	2264.078125	5.238987
512.778931	914.072083	26496.427734	2224.920654	5.124034
513.129028	904.338440	26342.841797	2180.710693	5.017482
513.479126	899.508789	26185.318359	2153.070068	4.957569
513.829285	896.908203	26109.826172	2136.946289	4.918265
514.179382	900.994812	26023.041016	2147.719971	4.962673
514.529297	904.189758	26025.791016	2148.388916	4.952707
514.879272	901.366272	26178.333984	2160.722900	4.982230
515.229187	898.468567	26339.421875	2181.602295	5.043576
515.579163	898.617126	26778.552734	2231.236572	5.149238
515.928955	902.629456	27322.521484	2288.226807	5.244523
516.278748	901.886414	28171.353516	2331.396484	5.242163
516.628540	901.960754	29053.181641	2372.040039	5.222080
516.978333	903.000977	30042.523438	2407.482666	5.163028
517.327942	908.722351	31016.482422	2430.218994	5.053503
517.677612	912.288879	31861.453125	2446.268311	4.956449
518.027222	915.781067	32401.705078	2432.522461	4.817205
518.376831	913.700623	32546.968750	2413.278076	4.740508
518.726379	905.378723	32277.992188	2366.690430	4.657922
519.075867	899.805969	31633.490234	2320.771240	4.623479
519.425293	898.542786	30877.609375	2269.502197	4.573056
519.774658	899.360168	30085.396484	2240.969971	4.596753
520.124084	902.406555	29435.619141	2212.363525	4.590990
520.473389	900.771912	28835.250000	2194.010986	4.629544
520.822693	900.103210	28396.937500	2183.979736	4.669179
521.171997	900.920471	28135.765625	2180.190430	4.697181
521.521240	912.065918	28121.945313	2178.778564	4.655341
521.870361	908.350769	28249.001953	2190.593018	4.689875
522.219482	910.505554	28515.154297	2217.044678	4.733040
522.568604	901.663574	28784.875000	2270.319580	4.908531
522.917664	906.195984	29237.898438	2326.121094	5.011788
523.266724	901.663513	29905.138672	2402.429932	5.174437
523.615662	902.257996	30900.937500	2483.419922	5.270772
523.964600	897.502502	32145.509766	2583.431396	5.395317
524.313538	903.075256	33589.582031	2674.155029	5.418382
524.662354	906.641785	35099.117188	2765.472900	5.436375
525.011169	912.808899	36509.011719	2819.119873	5.355378
525.359985	907.904968	37858.128906	2862.735596	5.290443
525.708740	907.384827	39323.675781	2890.301758	5.161657
526.057434	910.877136	41142.308594	2948.926514	5.065814
526.406067	916.524109	43450.527344	3050.275391	5.016577
526.754700	917.564270	46425.972656	3215.524658	5.049529
527.103333	905.750183	49848.511719	3446.828857	5.191939
527.451782	895.422058	53146.656250	3718.256836	5.402427
527.800293	894.530457	55516.542969	3972.818115	5.635617
528.148743	905.378601	56710.437500	4141.782715	5.799481
528.497131	911.991516	56669.937500	4182.500000	5.865547
528.845642	910.505554	55491.347656	4113.992676	5.869252
529.193909	908.350769	53255.207031	3932.248779	5.776656
529.542175	900.474670	50021.636719	3687.198242	5.673163
529.890503	900.103210	46391.574219	3408.860352	5.514785
530.238770	895.942200	42987.621094	3174.286377	5.412814
530.586914	897.056702	40609.785156	3006.807861	5.312532
530.934998	903.149597	39383.117188	2919.279541	5.239427
531.283142	907.087646	39393.000000	2896.171631	5.168343
531.631226	911.248596	40143.460938	2938.672607	5.167754
531.979248	905.081482	41481.578125	3045.222656	5.274337
532.327148	902.703796	42750.664063	3174.880859	5.429600
532.675110	905.898743	43736.734375	3280.093750	5.543191
533.023071	908.127869	43967.074219	3327.052979	5.617706
533.370850	911.545715	43194.328125	3304.316406	5.658972
533.718689	910.877014	41793.871094	3243.165283	5.704789
534.066467	913.031799	39953.839844	3146.274414	5.720278
534.414246	912.660339	38280.464844	3042.993408	5.700985
534.761963	913.551941	36918.347656	2931.019531	5.603330
535.109619	911.991516	36158.972656	2850.623779	5.500137
535.457153	911.025635	35831.671875	2795.045654	5.395147
535.804749	907.236145	35770.296875	2768.221924	5.337987
536.152344	910.133972	35667.535156	2722.748779	5.215047
536.499817	905.230042	35413.566406	2674.303467	5.126511
536.847229	910.951355	34882.226563	2626.303955	5.049421
537.194641	900.623291	34044.242188	2577.264160	5.058714
537.542114	904.115417	33083.656250	2534.762939	5.067342
537.889404	897.279602	32201.015625	2498.726318	5.115833
538.236694	904.561279	31735.583984	2494.713867	5.157638
538.583984	913.254822	31918.962891	2533.499756	5.225634
538.931213	916.449768	32846.335938	2603.047119	5.282190
539.278381	915.706726	34513.613281	2704.693604	5.324697
539.625488	912.511719	36711.785156	2812.135498	5.306319
539.972595	913.254700	39465.371094	2950.561279	5.284552
540.319641	917.564270	42101.039063	3072.120117	5.231603
540.666687	910.505554	44230.699219	3165.295898	5.204940
541.013611	908.202148	45360.324219	3214.855713	5.189074
541.360596	903.000977	45512.343750	3211.364014	5.174618
541.707458	902.109375	44678.519531	3162.843750	5.164275
542.054260	898.691406	43066.824219	3057.408447	5.119309
542.401062	899.062927	41067.562500	2940.307373	5.081704
542.747864	904.338379	38896.878906	2820.234375	5.042822
543.094666	904.041199	36851.398438	2697.708984	4.989707
543.441284	902.703674	34882.152344	2574.069092	4.918754
543.787903	898.914368	33301.066406	2465.067139	4.833484
544.134460	911.248596	31891.392578	2378.578857	4.736357
544.481079	905.007141	30938.312500	2322.851807	4.720908
544.827637	912.883118	30281.181641	2291.124268	4.692955
545.174072	906.567444	29992.884766	2288.895264	4.752502
545.520508	910.728516	29942.435547	2316.164307	4.841037
545.866943	906.790466	29946.001953	2350.195068	4.970536
546.213318	905.973145	29839.005859	2388.758057	5.124886
546.559631	908.425110	29470.242188	2403.916016	5.235980
546.905823	913.477722	28891.275391	2421.302734	5.389363
547.252136	911.100037	28017.994141	2411.866455	5.536475
547.598389	911.768738	27030.509766	2379.618896	5.619912
547.944458	905.229980	25963.822266	2319.136475	5.642402
548.290588	908.276428	24999.001953	2237.329102	5.516865
548.636658	910.431152	24059.369141	2155.596191	5.378930
548.982727	905.304260	23288.775391	2074.383545	5.222958
549.328735	902.332214	22710.255859	2006.916382	5.065059
549.674622	900.474609	22299.955078	1940.043945	4.857919
550.020569	912.214539	22022.435547	1890.038452	4.631993
550.366455	918.381653	21778.201172	1869.010620	4.557225
550.712280	917.712891	21684.357422	1877.035278	4.619535
551.058044	913.180420	21709.841797	1893.381836	4.713263
551.403748	905.601563	21851.390625	1898.657349	4.741076
551.749512	902.778137	22084.849609	1918.347656	4.794477
552.095154	902.406555	22244.525391	1926.149414	4.796819
552.440735	905.750183	22329.156250	1940.861328	4.831683
552.786316	906.716125	22219.634766	1937.146118	4.834767
553.131897	903.595398	22012.255859	1936.031616	4.891056
553.477417	904.635559	21679.900391	1940.192749	4.984568
553.822815	906.493164	21279.630859	1929.418823	5.020953
554.168213	905.155701	20865.615234	1923.400269	5.101308
554.513672	898.468506	20469.361328	1905.270386	5.144384
554.859009	897.502625	20189.314453	1901.406616	5.203783
555.204285	900.994873	19979.705078	1878.967163	5.125987
555.549500	899.360107	19825.302734	1859.871460	5.075104
555.894714	900.846191	19685.763672	1843.004761	5.015505
556.239990	893.861755	19515.087891	1828.367065	5.018495
556.585022	907.756348	19409.876953	1812.317749	4.888960
556.930115	907.310547	19242.544922	1798.125854	4.858489
557.275146	910.728455	19155.687500	1795.971069	4.851985
557.620178	902.406555	19056.642578	1785.122925	4.862316
557.965149	903.223877	18989.472656	1772.788696	4.807878
558.310059	904.709961	18905.138672	1756.367554	4.731318
558.654968	900.697571	18830.017578	1754.733032	4.763345
558.999756	899.508789	18857.732422	1747.302734	4.720923
559.344604	897.354004	18928.099609	1749.903320	4.728309
559.689331	906.716125	18995.640625	1759.191040	4.712690
560.033997	908.945129	19009.013672	1760.157227	4.702812
560.378723	913.849121	19066.671875	1774.348999	4.740309
560.723389	910.728455	19104.789063	1765.209839	4.696486
561.067932	907.384827	19172.255859	1768.182007	4.712857
561.412476	906.418945	19132.576172	1755.327515	4.657639
561.757019	905.452942	19118.384766	1763.203613	4.709569
562.101501	907.459167	19049.656250	1769.667969	4.752505
562.445862	906.344543	18940.654297	1777.023926	4.827905
562.790222	905.378662	18847.703125	1788.689453	4.923057
563.134644	904.041260	18804.384766	1801.320923	5.012640
563.478943	905.601563	18892.359375	1820.342407	5.085635
563.823181	906.493164	19036.136719	1840.998413	5.154570
564.167358	900.177429	19308.009766	1867.896118	5.257103
564.511536	897.948425	19721.205078	1892.416016	5.283186
564.855774	892.672913	20162.935547	1909.951294	5.279006
565.199768	902.183655	20542.994141	1920.948242	5.186978
565.543823	902.703796	20798.669922	1924.811890	5.137263
565.887817	909.316650	21005.750000	1922.434204	5.041280
566.231812	911.545715	21036.511719	1920.576660	5.013827
566.575745	909.911133	20901.503906	1907.499512	4.990039
566.919617	907.756348	20607.265625	1891.227173	4.992362
567.263428	901.960693	20272.384766	1867.821899	4.986268
567.607239	907.607727	19999.990234	1845.605469	4.912942
567.950989	908.127869	19760.365234	1817.593262	4.824177
568.294678	910.728455	19633.751953	1798.348755	4.740796
568.638367	910.282654	19546.373047	1781.556519	4.675197
568.981995	907.904968	19554.025391	1776.726929	4.659532
569.325623	902.555176	19659.236328	1770.559692	4.627708
569.669128	897.651184	19815.421875	1776.429565	4.645253
570.012573	894.827637	20064.632813	1785.122925	4.644258
570.356140	899.211609	20322.982422	1800.057739	4.637854
570.699524	896.462402	20612.169922	1832.082153	4.745555
571.042908	900.400391	20916.662109	1878.669922	4.887374
571.386230	897.428284	21157.253906	1940.712524	5.149522
571.729492	898.096985	21295.160156	1986.929077	5.338181
572.072815	891.929871	21335.060547	2024.080444	5.538049
572.416016	893.861633	21244.783203	2051.052246	5.686183
572.759094	901.960754	21071.210938	2067.621826	5.779397
573.102234	916.524109	20822.818359	2080.327393	5.846408
573.445374	922.468262	20577.691406	2068.364746	5.829985
573.788391	919.719055	20390.375000	2056.699219	5.839455
574.131409	911.768738	20241.472656	2024.377563	5.755954
574.474365	908.350769	20120.806641	1987.969360	5.619369
574.817261	906.418884	20005.634766	1943.239136	5.428601
575.160156	905.972961	19788.375000	1894.199341	5.233584
575.502930	904.858459	19541.466797	1844.119141	5.039869
575.845703	903.075195	19269.443359	1793.816406	4.849850
576.188477	910.133972	18924.455078	1753.470093	4.681476
576.531250	910.356934	18539.123047	1720.479492	4.595458
576.873901	910.431213	18067.376953	1703.984253	4.625258
577.216431	902.034973	17706.931641	1689.941040	4.688550
577.559082	900.771790	17375.693359	1676.789429	4.710296
577.901611	906.493164	17104.857422	1653.904297	4.614115
578.244080	906.938965	16793.751953	1637.631958	4.599368
578.586487	904.189758	16538.818359	1635.774414	4.679258
578.928955	910.505554	16280.247070	1648.703125	4.802928
579.271301	911.620117	16088.100586	1659.551392	4.928226
579.613647	907.310547	15816.078125	1663.415039	5.071543
579.955872	891.335449	15682.184570	1665.792847	5.236058
580.298157	894.158875	15547.101563	1670.027954	5.294971
580.640320	896.536560	15522.656250	1688.975220	5.417969
580.982483	906.121643	15421.381836	1717.878906	5.592441
581.324524	900.028809	15334.077148	1728.207031	5.737671
581.666626	902.480896	15231.538086	1727.389648	5.756895
582.008728	906.344543	15163.550781	1703.909790	5.594120
582.350647	910.951355	15095.415039	1690.163940	5.493423
582.692566	916.152527	15040.133789	1664.678101	5.299678
583.034424	909.168152	14999.043945	1632.505005	5.133735
583.376343	910.728455	14931.355469	1600.554810	4.920082
583.718201	909.762512	14896.803711	1571.428223	4.730563
584.059937	906.641846	14815.367188	1553.669922	4.651958
584.401611	902.332275	14805.411133	1543.639038	4.612696
584.743347	903.892578	14752.656250	1540.443970	4.596449
585.085022	906.195984	14695.518555	1534.574097	4.556991
585.426514	913.403320	14627.011719	1536.060181	4.540431
585.768127	912.065918	14611.778320	1536.654663	4.559137
586.109619	912.363098	14638.528320	1551.515137	4.656450
586.451172	906.418945	14652.792969	1562.586304	4.773385
586.792542	901.886414	14708.148438	1582.573608	4.930279
587.133850	902.257996	14774.946289	1596.245239	5.002543
587.475220	911.768738	14874.809570	1611.997559	5.014874
587.816589	911.843018	14939.304688	1627.081055	5.098841
588.157776	917.861511	15018.362305	1642.684570	5.140407
588.498962	913.923401	15110.721680	1656.579102	5.231149
588.840210	924.994568	15185.098633	1668.987671	5.217305
589.181335	920.462097	15289.864258	1696.405396	5.399969
589.522400	925.663330	15315.127930	1710.077148	5.451306
589.863403	917.267151	15305.989258	1718.473267	5.568293
590.204407	923.285645	15220.690430	1703.612793	5.457824
590.545410	915.781067	15081.223633	1698.783203	5.527552
590.886353	910.208313	14887.961914	1680.653320	5.511937
591.227112	901.737854	14706.143555	1662.820679	5.513333
591.567932	896.833801	14608.731445	1620.765259	5.279586
591.908752	901.217712	14632.731445	1594.462036	5.048564
592.249512	905.527283	14680.135742	1564.518066	4.784098
592.590149	907.533447	14718.031250	1554.487305	4.684508
592.930786	913.180481	14786.985352	1541.558594	4.529242
593.271423	912.957520	14834.166992	1542.375977	4.521292
593.612000	909.762512	15037.460938	1550.549194	4.535676
593.952576	905.972961	15186.584961	1560.431274	4.582845
594.292969	902.629395	15408.304688	1579.007202	4.662849
594.633484	907.236145	15603.421875	1597.954224	4.699982
594.973877	912.734680	15912.075195	1619.799316	4.713972
595.314209	914.740784	16254.687500	1640.604004	4.731850
595.654480	914.146423	16610.894531	1658.808228	4.744051
595.994812	914.220703	16934.111328	1683.179321	4.800024
596.335022	915.781067	17197.363281	1687.860718	4.742043
596.675171	912.140198	17253.312500	1684.888550	4.728843
597.015320	900.103210	17168.832031	1668.541870	4.723410
597.355408	895.570740	16839.300781	1655.910522	4.768895
597.695496	899.062988	16428.109375	1633.768188	4.731167
598.035461	907.459229	15874.554688	1609.768555	4.692356
598.375366	909.391113	15361.046875	1581.904907	4.653541
598.715271	914.072083	14891.825195	1573.211548	4.715632
599.055176	912.957520	14462.950195	1573.880249	4.877661
599.395081	917.935852	14149.020508	1574.994751	4.966024
599.734802	911.099915	13917.567383	1562.289063	5.006656
600.074524	914.517883	13834.051758	1556.716309	4.970755
600.414246	908.350769	13761.754883	1558.350952	5.057027
600.753906	908.425049	13799.204102	1568.604614	5.121332
601.093506	903.075256	13862.286133	1569.124878	5.139585
601.433044	908.945251	14073.307617	1573.954468	5.051587
601.772583	911.545837	14338.418945	1579.527344	4.974959
602.112122	918.901794	14705.846680	1577.000977	4.773350
602.451538	919.942078	15107.081055	1586.883301	4.701027
602.790894	920.982239	15533.503906	1597.805664	4.631804
603.130310	911.843079	16020.484375	1622.771484	4.705442
603.469604	906.939148	16433.607422	1626.337891	4.633310
603.808838	900.994812	16814.185547	1636.145874	4.619759
604.148010	902.480896	17083.013672	1637.929199	4.545266
604.487305	903.372498	17194.095703	1640.901245	4.527293
604.826416	909.539612	17055.447266	1632.282227	4.476321
605.165527	915.038025	16644.033203	1611.700317	4.429160
605.504456	908.053528	16159.131836	1586.437500	4.448105
605.843445	909.019531	15671.187500	1551.589355	4.352815
606.182434	904.709961	15198.101563	1533.088013	4.396284
606.521423	916.672668	14770.043945	1511.243042	4.291882
606.860229	917.861511	14425.500977	1501.435181	4.320323
607.199036	915.112305	14251.335938	1492.147339	4.326825
607.537903	907.830750	14212.104492	1482.487915	4.319343
607.876648	902.109375	14254.679688	1483.899536	4.357140
608.215271	901.440613	14403.582031	1493.113159	4.382064
608.553955	903.446777	14652.273438	1523.577148	4.510424
608.892578	910.133972	14869.386719	1559.911255	4.654814
609.231140	919.050293	15007.515625	1582.127930	4.706529
609.569641	918.753235	14966.054688	1600.109009	4.850439
609.908081	912.660400	14823.765625	1589.483765	4.865345
610.246521	911.842957	14586.143555	1592.158691	4.975141
610.584961	914.889343	14247.323242	1581.756348	5.001840
610.923340	920.387756	13892.676758	1571.651245	5.020421
611.261597	910.431152	13450.426758	1544.902344	5.059580
611.599854	908.573547	13073.859375	1526.623657	5.080441
611.938110	904.635559	12753.393555	1515.701172	5.157212
612.276245	912.140137	12528.403320	1504.704468	5.101161
612.614319	904.264099	12370.288086	1487.986328	5.090886
612.952393	908.202148	12216.628906	1478.104004	5.039621
613.290466	912.363098	12075.973633	1461.534546	4.919300
613.628479	917.787109	11890.590820	1439.838013	4.757680
613.966370	916.969910	11757.143555	1410.042603	4.548568
614.304260	914.815125	11643.831055	1395.107910	4.476578
614.642151	912.585938	11586.468750	1383.665405	4.413384
614.979980	907.830566	11538.618164	1393.993286	4.573158
615.317749	904.487000	11535.719727	1393.176147	4.596731
615.655396	909.836853	11497.305664	1399.343140	4.623450
615.993164	915.335205	11490.768555	1385.597290	4.446741
616.330811	916.524109	11477.838867	1387.603394	4.460423
616.668396	915.038025	11497.604492	1387.603394	4.465508
617.005859	917.564270	11504.811523	1398.897461	4.546349
617.343445	920.610779	11486.531250	1402.538086	4.561148
617.680908	911.917297	11504.141602	1410.860229	4.710464
618.018311	903.372498	11495.968750	1412.123413	4.802891
618.355652	897.576843	11521.082031	1414.277954	4.863754
618.692993	904.561340	11484.674805	1427.503906	4.942693
619.030273	903.223938	11439.870117	1441.101440	5.104826
619.367554	898.171326	11380.874023	1451.875366	5.282073
619.704712	898.171387	11329.382813	1462.500488	5.410006
620.041870	899.211609	11316.675781	1465.695435	5.437829
620.379028	908.350769	11243.933594	1481.447632	5.544891
620.716064	901.589172	11224.094727	1477.806763	5.582149
621.053040	899.731628	11191.104492	1485.831421	5.695059
621.389954	892.672852	11181.742188	1483.750977	5.744719
621.726929	904.264099	11124.378906	1474.537476	5.579911
622.063843	911.991638	11090.573242	1459.454102	5.378573
622.400635	916.821289	11105.953125	1435.974487	5.095166
622.737427	908.945251	11145.629883	1425.349121	5.044640
623.074219	905.007141	11130.176758	1409.671265	4.935508
623.410889	906.641846	11131.366211	1397.708496	4.802737
623.747559	914.592285	11169.929688	1388.420532	4.620308
624.084167	916.598389	11268.007813	1387.083130	4.545127
624.420715	915.112305	11388.675781	1389.089233	4.525460
624.757324	917.341370	11546.049805	1390.575317	4.452413
625.093750	917.564270	11732.028320	1394.959351	4.414413
625.430176	921.279480	11925.290039	1405.584595	4.401169
625.766602	917.044250	12113.945313	1422.377075	4.513149
626.102905	920.462097	12315.527344	1437.386108	4.536385
626.439209	916.078308	12448.602539	1451.652222	4.644030
626.775452	908.053528	12536.355469	1453.509766	4.690764
627.111694	898.394226	12475.797852	1452.841187	4.789044
627.447876	899.583008	12402.239258	1443.776245	4.731022
627.783997	902.109375	12249.992188	1436.271484	4.707152
628.120056	900.177490	12103.913086	1434.339722	4.767715
628.456055	896.388000	11905.227539	1423.937378	4.792052
628.792053	898.765808	11704.907227	1418.810425	4.812491
629.128052	903.000977	11554.148438	1409.374023	4.754164
629.463928	903.223877	11376.637695	1423.268555	4.965379
629.799744	898.542786	11252.625977	1437.237427	5.202727
630.135559	898.468506	11117.840820	1446.822632	5.365830
630.471375	899.285828	11029.718750	1442.884399	5.365995
630.807068	906.938965	10949.620117	1440.878418	5.316702
631.142700	912.883240	10849.088867	1440.655396	5.311606
631.478333	904.932861	10774.266602	1434.191040	5.362653
631.813965	903.223877	10701.524414	1434.042603	5.417457
632.149475	896.165100	10646.019531	1434.488281	5.521346
632.484924	909.762512	10652.260742	1432.184937	5.362305
632.820435	902.926697	10646.242188	1406.624878	5.169680
633.155884	902.555176	10691.864258	1383.813965	4.916167
633.491150	897.056824	10730.798828	1376.978149	4.880353
633.826477	903.892578	10738.600586	1377.943970	4.820188
634.161804	906.939148	10702.043945	1367.095703	4.697822
634.497009	909.539612	10604.559570	1356.247437	4.607601
634.832153	906.344543	10521.636719	1346.513916	4.577806
635.167297	908.127869	10438.566406	1342.575806	4.558530
635.502380	903.966797	10345.465820	1340.718384	4.625871
635.837463	901.143372	10231.633789	1344.507813	4.751781
636.172424	907.087585	10094.396484	1356.247437	4.888916
636.507324	908.276428	9958.496094	1354.464233	4.930132
636.842224	913.403320	9852.243164	1350.229004	4.886827
637.177124	905.452942	9756.244141	1350.897827	5.032825
637.511963	903.000977	9677.706055	1364.643799	5.261064
637.846741	899.805969	9595.230469	1367.764526	5.381664
638.181396	896.165100	9530.809570	1352.235229	5.281863
638.516113	898.096985	9447.145508	1332.545044	5.081829
638.850769	900.177429	9376.631836	1317.907349	4.928121
639.185303	905.601563	9314.143555	1312.631836	4.840676
639.519836	901.217712	9276.471680	1303.492676	4.803137
639.854370	903.669678	9187.382813	1296.805420	4.745888
640.188843	907.979187	9086.999023	1295.913818	4.743045
640.523254	918.010071	9013.440430	1304.087036	4.769073
640.857605	922.542664	8953.477539	1302.675293	4.733355
641.191895	911.174316	8925.094727	1300.223389	4.854666
641.526184	909.911133	8861.120117	1300.817749	4.916317
641.860413	905.898743	8841.503906	1312.186157	5.119804
642.194580	911.842957	8818.171875	1323.480103	5.206426
642.528748	908.202148	8815.051758	1325.560669	5.278443
642.862793	909.168152	8796.178711	1323.480103	5.253092
643.196838	909.985352	8741.566406	1318.427368	5.215320
643.530823	916.152527	8711.697266	1304.458496	4.981127
643.864746	914.963684	8674.545898	1291.307007	4.850046
644.198669	921.130798	8661.839844	1283.430786	4.680449
644.532532	926.034851	8612.279297	1275.480591	4.546378
644.866333	927.743835	8596.081055	1275.331909	4.532770
645.200073	920.164856	8615.772461	1266.266968	4.497398
645.533813	911.545715	8672.761719	1268.050293	4.593411
645.867554	906.493164	8696.315430	1258.390991	4.517405
646.201172	907.310547	8707.907227	1249.028809	4.380668
646.534729	904.932861	8696.315430	1242.713135	4.335306
646.868225	898.617188	8695.721680	1250.812134	4.516996
647.201782	899.805969	8704.934570	1255.195923	4.553288
647.535217	896.165100	8716.081055	1261.065796	4.666299
647.868591	905.155762	8711.250977	1263.220581	4.586990
648.201965	903.595459	8654.409180	1265.746826	4.672431
648.535278	905.898865	8617.778320	1258.688110	4.574621
648.868591	897.056824	8610.942383	1263.071899	4.744886
649.201782	899.062927	8621.418945	1267.530151	4.771435
649.534912	899.657288	8643.263672	1276.669312	4.868688
649.868103	903.669739	8647.722656	1267.455688	4.697617
650.201172	906.716125	8664.291992	1274.663086	4.743066
650.534180	912.511719	8641.555664	1274.960327	4.689436
650.867188	907.979248	8614.658203	1276.966675	4.787892
651.200134	903.298157	8601.283203	1274.143066	4.817429
651.533020	898.988586	8567.327148	1276.595093	4.924229
651.865845	904.338379	8540.354492	1278.378296	4.898365
652.198608	907.459167	8477.420898	1278.304077	4.898901
652.531433	900.103210	8450.894531	1276.223633	4.981205
652.864136	902.629395	8435.141602	1270.279297	4.880840
653.196777	1037.117310	8547.413086	1406.550415	4.919022
653.529358	1040.609497	8493.915039	1409.596802	4.950653
653.861938	1039.420776	8421.470703	1407.516235	4.986358
654.194519	896.685242	8221.076172	1267.455811	5.062135
654.526978	898.542786	8185.856934	1260.917114	4.972673
654.859375	900.400391	8136.371094	1263.592041	5.019253
655.191833	906.344666	8117.126465	1254.973022	4.834821
655.524170	908.053528	8096.990723	1249.177368	4.745122
655.856445	906.716064	8098.179688	1245.090576	4.705225
656.188660	908.870911	8139.937500	1248.137085	4.691786
656.520874	908.276428	8198.859375	1247.839844	4.657562
656.853088	912.734619	8293.668945	1250.291870	4.573367
657.185181	917.415710	8360.616211	1249.920288	4.467226
657.517212	917.490051	8495.699219	1253.115356	4.428821
657.849243	913.106140	8689.406250	1257.647827	4.430664
658.181274	911.248535	8929.180664	1264.483765	4.405565
658.513123	911.174255	9138.937500	1268.198853	4.339267
658.844971	913.849121	9350.700195	1280.755981	4.348860
659.176819	900.994812	9494.550781	1290.861206	4.536730
659.508667	907.904968	9569.000977	1300.817749	4.536525
659.840393	903.298157	9512.754883	1286.625977	4.452404
660.172058	911.694336	9380.050781	1284.991211	4.408138
660.503662	903.075195	9170.442383	1282.910767	4.594396
660.835266	899.880310	8969.377930	1289.226563	4.824913
661.166931	906.716125	8742.235352	1271.616821	4.657007
661.498413	910.505615	8554.843750	1247.319702	4.406060
661.829773	918.010193	8330.820313	1228.298218	4.185835
662.161194	920.164856	8139.565918	1222.279785	4.184764
662.492615	915.112305	7960.941895	1223.097168	4.371165
662.823975	913.551941	7840.349121	1219.084839	4.410882
663.155212	902.332214	7735.210449	1208.385132	4.479121
663.486450	903.149597	7672.572754	1207.121948	4.490373
663.817627	892.227051	7600.648438	1213.214844	4.784848
664.148743	888.734863	7549.082031	1219.159058	4.961066
664.479858	888.660583	7470.692871	1217.450073	4.995258
664.810913	901.366272	7421.727051	1218.564575	4.864736
665.141907	910.356934	7406.495605	1216.409790	4.711304
665.472778	915.112305	7407.907715	1211.951538	4.571825
665.803711	917.564270	7414.669434	1208.682251	4.480734
666.134583	908.722351	7391.857422	1207.939331	4.615313
666.465454	905.973083	7402.631348	1211.357300	4.700635
666.796143	898.914368	7381.826660	1210.168457	4.801146
667.126831	903.372559	7382.940918	1210.688477	4.742846
667.457458	911.545837	7369.417969	1211.282959	4.641422
667.788147	916.078308	7375.882813	1213.660767	4.606679
668.118774	913.997742	7379.448730	1215.072388	4.656669
668.449219	905.973083	7372.761719	1212.248901	4.736135
668.779663	905.304382	7358.124512	1200.508911	4.574814
669.110107	908.573669	7348.019531	1193.078735	4.418161
669.440552	903.818359	7322.236328	1198.651489	4.593548
669.770874	902.109375	7302.992188	1201.772217	4.681586
670.101135	898.320007	7272.156250	1201.846558	4.762070
670.431396	900.623352	7239.166016	1192.484375	4.604545
670.761597	906.641785	7174.225098	1188.472046	4.496634
671.091797	907.979248	7125.854004	1193.227295	4.587549
671.421875	912.586121	7068.714844	1191.518311	4.530967
671.751892	907.459167	7036.765137	1191.295410	4.630805
672.081909	916.672668	6999.910156	1190.552368	4.502203
672.411865	915.855286	6992.183594	1198.725830	4.655288
672.741821	918.158691	6952.654785	1196.719604	4.616142
673.071716	905.378662	6925.385254	1187.729126	4.690202
673.401550	905.304382	6863.193848	1176.657959	4.554525
673.731262	900.400391	6852.865723	1176.583618	4.639812
674.060974	907.236267	6812.816406	1181.859009	4.650225
674.390625	910.208313	6791.640137	1181.710571	4.616261
674.720276	906.864746	6767.640625	1168.484619	4.463912
675.049927	905.229980	6748.544434	1165.958252	4.461993
675.379395	901.589172	6716.669434	1162.243042	4.482378
675.708923	909.019470	6686.947754	1168.484497	4.490624
676.038330	909.539551	6660.941406	1161.574463	4.382147
676.367737	910.802734	6655.963379	1163.357788	4.395962
676.697083	904.412781	6660.867188	1166.552734	4.553844
677.026428	902.034973	6669.412109	1164.620728	4.552949
677.355652	896.536621	6696.235840	1167.444336	4.671065
677.684875	899.880188	6737.176270	1173.685669	4.690622
678.013977	901.069031	6771.578613	1189.140747	4.907099
678.343079	910.059753	6846.699219	1193.598877	4.776088
678.672180	907.087585	6889.942871	1193.375977	4.785146
679.001221	912.065918	7006.523438	1192.038452	4.593888
679.330139	903.298157	7092.714844	1201.549316	4.818728
679.659058	902.778015	7176.751465	1216.335571	4.997751
679.987976	900.623230	7247.115723	1226.440796	5.133821
680.316772	902.778076	7304.478027	1229.189941	5.098831
680.645630	910.802734	7354.854980	1238.180542	5.080310
680.974304	912.065918	7326.024902	1245.908081	5.204931
681.302979	911.471497	7289.765625	1247.394043	5.266652
681.631653	910.208313	7220.664063	1246.205200	5.324448
681.960266	910.431335	7180.243652	1249.846069	5.413475
682.288757	909.465332	7090.485840	1249.994629	5.509273
682.617249	908.499329	6986.833496	1243.084473	5.504553
682.945679	903.298157	6855.540527	1223.468628	5.378989
683.274109	908.350769	6744.904297	1214.477905	5.244998
683.602478	904.561279	6661.685059	1196.793823	5.076016
683.930725	896.313660	6578.614746	1189.289429	5.155935
684.259033	897.353821	6494.652344	1180.298828	5.055028
684.587280	893.861755	6414.925781	1176.732178	5.123477
684.915344	901.737793	6336.090332	1167.667358	4.893491
685.243469	898.691406	6281.255371	1159.122437	4.838419
685.571533	905.081360	6225.304688	1155.704590	4.710765
685.899536	912.065918	6227.756348	1151.171997	4.498119
686.227539	918.381592	6235.930176	1147.382568	4.306514
686.555420	914.072083	6255.769531	1145.227783	4.327383
686.883301	909.613953	6271.892578	1157.710571	4.626701
687.211121	896.016602	6307.706543	1169.227539	5.048532
687.538940	902.480896	6364.027832	1177.772461	5.040542
687.866638	904.338379	6372.572754	1183.642456	5.107756
688.194336	915.260925	6345.453125	1190.329590	5.065542
688.521973	912.140137	6294.332031	1194.787720	5.251533
688.849609	907.384766	6221.589844	1199.914673	5.504679
689.177063	909.985413	6150.407715	1200.286133	5.539644
689.504578	914.666504	6053.442871	1211.134277	5.769229
689.832031	916.746887	5992.736816	1212.620483	5.828885
690.159485	906.790344	5900.898926	1217.970215	6.230939
690.486816	899.583008	5837.370605	1215.072388	6.389286
690.814087	906.716125	5767.748535	1212.100342	6.282291
691.141296	912.734619	5731.562988	1206.379028	6.093689
691.468506	920.462097	5681.929199	1194.193481	5.748887
691.795715	918.233093	5630.882813	1195.530884	5.884116
692.122803	917.935852	5576.567871	1183.196533	5.693961
692.449829	906.270325	5542.908691	1178.812622	5.878015
692.776855	898.691406	5509.917969	1158.528076	5.634871
693.103821	896.685242	5473.509766	1153.698364	5.615533
693.430664	905.452942	5443.268066	1143.444458	5.244628
693.757568	905.898743	5428.779785	1132.819214	5.017167
694.084351	903.743958	5414.067871	1132.373413	5.069026
694.411133	900.400391	5388.061523	1124.720215	4.998591
694.737854	900.920410	5380.928711	1130.664429	5.128205
695.064575	899.805969	5399.578613	1117.884399	4.846432
695.391174	905.527344	5433.089355	1120.930786	4.757603
695.717773	906.493225	5447.949707	1114.317871	4.576167
696.044250	915.335205	5474.921875	1113.872070	4.354273
696.370789	912.214417	5540.605469	1125.389038	4.605804
696.697205	912.214417	5638.833496	1128.658325	4.579254
697.023621	899.434387	5764.033691	1146.788208	5.084773
697.349915	896.313660	5924.527344	1152.880981	5.102554
697.676208	899.805969	6141.863281	1169.673462	5.148122
698.002380	905.675842	6384.981934	1181.338989	5.030986
698.328674	912.734619	6624.607910	1186.763062	4.797523
698.654724	904.338379	6794.612793	1188.100464	4.817468
698.980896	905.378662	6909.039063	1185.797241	4.670794
699.306946	907.310547	6912.010254	1183.196655	4.594503
699.632935	915.260925	6841.497559	1177.252319	4.420873
699.958862	921.056580	6677.287598	1167.741577	4.285530
700.284729	915.929688	6483.357910	1164.026367	4.456217
700.610596	910.431213	6252.053223	1157.413452	4.623731
700.936340	901.514893	6057.157715	1153.252563	4.882761
701.262146	893.713135	5831.128906	1137.574707	4.939053
701.587830	901.812195	5641.210938	1137.128784	4.965115
701.913513	909.019531	5435.466797	1133.042236	4.949195
702.239075	913.551941	5291.319824	1133.339355	5.020536
702.564697	905.898743	5182.837891	1126.280640	5.152795
702.890137	903.149597	5094.789063	1123.902954	5.266516
703.215698	900.920471	5003.173340	1127.172241	5.515305
703.541016	908.202148	4912.003906	1128.732544	5.508025
703.866455	909.316650	4853.156250	1135.122681	5.725538
704.191711	910.579895	4812.215820	1134.899902	5.749383
704.517029	902.257996	4780.711426	1140.100952	6.132418
704.842163	900.920471	4753.813965	1140.175293	6.209744
705.167419	900.549011	4739.473633	1134.082520	6.083305
705.492493	901.440613	4732.043457	1138.614868	6.191565
705.817566	904.635559	4701.802246	1131.481812	5.974092
706.142578	910.579773	4705.294922	1132.001953	5.835015
706.467590	912.511658	4698.755859	1121.302368	5.514454
706.792480	909.539612	4722.012207	1115.283813	5.396608
707.117371	910.282715	4708.340332	1108.819458	5.227323
707.442200	919.347656	4716.513672	1097.599731	4.694345
707.766907	917.341492	4729.516602	1084.151001	4.375704
708.091675	912.140137	4754.779297	1079.024048	4.342950
708.416321	903.743958	4781.751465	1082.590454	4.611814
708.741028	906.270264	4804.042480	1090.169434	4.718059
709.065552	911.768738	4814.519531	1092.398560	4.628270
709.390137	914.889404	4811.844238	1088.534790	4.455925
709.714600	913.700623	4803.373535	1092.249878	4.590341
710.039063	904.932922	4830.048828	1096.559448	4.882060
710.363403	895.645020	4869.949219	1101.983643	5.191818
710.687744	893.267273	4939.867676	1098.640015	5.075192
711.012085	896.610901	5005.253906	1105.773071	5.090785
711.336304	898.691406	5065.587891	1114.169312	5.171185
711.660461	902.109314	5104.002441	1124.348877	5.289034
711.984619	901.960754	5086.467285	1125.389038	5.339418
712.308716	897.725525	5032.448730	1130.738892	5.635525
712.632751	894.976318	4953.391113	1124.645996	5.659098
712.956726	898.542786	4886.072754	1120.930786	5.577086
713.280701	909.539551	4843.273926	1109.116577	5.073475
713.604553	908.499329	4797.875488	1114.763672	5.303276
713.928467	902.852356	4761.912598	1114.986694	5.497046
714.252258	897.205383	4726.916504	1125.017578	5.948548
714.575989	897.725403	4712.427246	1125.760620	5.977799
714.899719	895.793640	4717.107910	1124.274536	5.979118
715.223267	899.954590	4737.318848	1121.451050	5.772099
715.546936	904.709961	4749.207031	1123.457275	5.689881
715.870422	908.796570	4753.665527	1121.005249	5.519269
716.193970	903.298157	4736.946777	1115.655396	5.539299
716.517395	908.499329	4700.761230	1111.568726	5.354836
716.840820	911.397156	4656.997559	1109.562500	5.290617
717.164124	921.576660	4594.583008	1106.813354	5.043190
717.487488	914.294922	4519.462891	1100.646240	5.169005
717.810730	909.390930	4446.126465	1096.633911	5.294232
718.133972	902.183594	4366.770996	1085.637207	5.295107
718.457092	902.034973	4297.446777	1074.937622	5.092244
718.780212	913.180481	4225.818848	1063.569214	4.539847
719.103210	917.787170	4166.524902	1051.532227	4.116831
719.426208	916.969910	4113.324707	1047.965698	4.098287
719.749207	913.626221	4065.176025	1044.993530	4.168340
720.072083	909.465332	4032.631592	1050.566162	4.517878
720.394958	909.613953	4019.479736	1043.358887	4.300666
720.717773	905.898743	3974.229736	1041.352661	4.414580
721.040527	912.660339	3936.112549	1029.315552	3.858345
721.363281	914.220703	3908.174561	1028.052490	3.802056
721.685913	908.945129	3913.301514	1029.464233	4.011478
722.008545	900.846191	3896.805908	1039.197876	4.617942
722.331055	898.468506	3862.180908	1043.358887	4.888814
722.653503	907.013367	3823.989502	1040.981079	4.592691
722.976013	911.397156	3819.531250	1032.436401	4.162093
723.298401	908.945129	3829.339111	1027.383789	4.055571
723.620789	898.840027	3835.060547	1023.074219	4.231092
723.943115	897.428284	3817.748291	1031.173218	4.579804
724.265381	897.279724	3795.234619	1030.652954	4.602323
724.587585	902.926758	3783.643311	1037.563232	4.673715
724.909790	905.898743	3788.696045	1033.699341	4.433215
725.231873	906.939026	3805.860107	1039.866577	4.585414
725.553894	911.099915	3839.147461	1043.210083	4.511886
725.875916	951.594971	3909.735107	1074.640259	4.159549
726.197937	954.715637	3928.682373	1076.126343	4.082450
726.519775	951.520691	3933.066162	1073.005615	4.074562
726.841675	909.316711	3902.676514	1046.776733	4.592165
727.163513	907.830627	3920.508789	1059.779663	5.043653
727.485291	903.000977	3946.960205	1074.491577	5.633801
727.806946	903.669617	3980.991211	1079.469849	5.712768
728.128662	899.508728	3988.495850	1065.872559	5.385708
728.450256	905.527283	3980.248047	1058.367920	4.970879
728.771790	905.527161	3956.322998	1050.789185	4.761447
729.093323	911.397156	3946.440430	1054.578491	4.717605
729.414795	910.579773	3939.901611	1045.959473	4.468977
729.736145	910.431152	3936.781006	1045.587891	4.465999
730.057495	915.781006	3951.270264	1039.197876	4.065798
730.378845	913.254700	3982.774170	1038.677734	4.086081
730.700134	902.034973	3996.446045	1037.934692	4.391780
731.021301	891.929932	4022.006104	1038.677612	4.688310
731.342468	896.611023	4043.182617	1036.820068	4.455931
731.663574	910.282715	4084.271729	1043.358765	4.192707
731.984680	916.969910	4096.605957	1048.708618	4.143201
732.305664	909.242371	4098.389160	1055.024414	4.571193
732.626648	905.898743	4089.844482	1051.012085	4.557657
732.947571	900.400391	4088.432861	1050.194702	4.698645
733.268433	911.768738	4073.423828	1055.024292	4.531031
733.589233	911.917297	4059.826416	1052.052124	4.451680
733.909973	915.112305	4006.477295	1051.383423	4.408121
734.230713	910.802734	3943.171143	1045.736450	4.449780
734.551331	904.115417	3864.410156	1056.510376	5.147966
734.871948	904.561279	3824.806885	1057.476440	5.236380
735.192505	910.134033	3787.952393	1060.894165	5.238695
735.513062	915.929626	3757.934570	1054.801392	4.886401
735.833435	912.660339	3707.037109	1048.039917	4.844715
736.153931	906.790344	3669.885742	1042.541504	4.913010
736.474304	909.168152	3620.400391	1033.179321	4.573978
736.794617	913.477722	3606.208252	1037.043091	4.588850
737.114807	910.951355	3583.992188	1034.070923	4.605974
737.434998	908.722229	3605.985596	1032.956421	4.605935
737.755188	901.812195	3594.617188	1029.464233	4.740486
738.075256	899.508728	3611.855469	1029.761353	4.802211
738.395325	897.279602	3627.384766	1034.219604	5.015924
738.715271	904.189758	3670.406006	1039.049194	4.875231
739.035278	910.431213	3696.560303	1041.278320	4.696376
739.355164	909.019531	3703.841797	1046.330933	4.913064
739.675049	904.115540	3685.934814	1040.015259	4.885282
739.994873	908.202148	3662.306641	1036.894531	4.672749
740.314636	909.613953	3628.870361	1030.058716	4.429327
740.634277	914.072083	3583.768799	1027.903809	4.263845
740.953979	906.716125	3540.376221	1025.377563	4.505571
741.273499	912.140198	3497.428955	1016.758484	4.046677
741.593140	907.384766	3467.188232	1008.733704	3.959247
741.912598	911.025574	3437.169922	1004.126953	3.685513
742.232117	914.889343	3396.749023	1002.640869	3.535717
742.551453	920.164856	3361.455078	1005.092957	3.478820
742.870850	920.239197	3333.814453	1003.309631	3.441800
743.190063	912.065918	3307.362549	1006.207520	3.930269
743.509338	910.579895	3281.728271	1007.396240	4.083099
743.828552	908.945251	3254.310547	1011.705872	4.381433
744.147705	909.242432	3246.805908	1008.287903	4.237124
744.466797	918.158752	3239.227295	1003.606934	3.681416
744.785828	916.598389	3232.985596	1003.235352	3.740176
745.104858	917.118591	3218.496826	1012.597473	4.148770
745.423706	905.230164	3207.946045	1015.272461	4.778805
745.742615	904.264160	3186.323486	1013.266296	4.776481
746.061401	906.938965	3171.760498	1012.671814	4.668485
746.380249	909.390930	3159.128906	1011.037109	4.518134
746.698975	910.133972	3159.203125	1014.083496	4.621891
747.017639	910.654114	3155.785156	1008.510742	4.358615
747.336304	913.329102	3150.137939	1005.315857	4.112410
747.654907	910.356934	3136.689453	1005.984558	4.295299
747.973389	909.539551	3135.128906	1007.099121	4.383539
748.291931	904.264099	3143.302002	1010.665588	4.752108
748.610352	904.264160	3151.846924	1003.978333	4.436507
748.928711	908.276428	3150.509766	1003.309631	4.238328
749.247070	908.499451	3148.503174	1005.464539	4.328792
749.565308	913.031799	3144.045166	1002.269348	3.999866
749.883545	909.168152	3135.797607	1001.080566	4.127872
750.201782	912.957520	3115.290283	1003.829773	4.126182
750.519836	916.524109	3106.447998	1001.080505	3.861157
750.837952	906.493164	3114.472900	998.331299	4.159374
751.155884	909.762512	3116.181641	997.216797	3.963630
751.473877	905.378662	3103.401611	1008.213684	4.678524
751.791809	915.186584	3085.123291	1012.226013	4.471993
752.109619	912.511719	3086.163818	1015.866882	4.754908
752.427490	906.344543	3081.111328	1014.306458	4.964298
752.745300	909.316650	3064.021484	1016.164063	4.958796
753.062988	901.663513	3037.123779	1010.591309	5.100905
753.380615	908.796570	3043.439453	1007.693542	4.632952
753.698303	904.189880	3044.479736	1004.795654	4.700568
754.015808	907.979248	3046.857422	1004.721436	4.523034
754.333374	907.533386	3039.278564	1003.161072	4.485888
754.650757	907.904846	3037.346436	1001.080566	4.375594
754.968262	911.545715	3034.077148	998.108398	4.078276
755.285583	905.675781	3025.755127	1002.343689	4.559636
755.602905	907.310547	3022.188721	1000.263184	4.395177
755.920105	900.400391	3009.780273	1002.120789	4.822289
756.237305	903.149597	3005.248047	994.393311	4.340601
756.554443	900.103088	3001.978516	999.222961	4.715782
756.871582	907.756348	3029.024658	992.238586	3.982629
757.188599	912.660339	3044.033936	983.322205	3.315320
757.505615	912.883301	3067.141846	982.207703	3.218017
757.822510	909.168152	3077.618896	994.244629	3.923376
758.139465	904.932800	3100.578125	1012.226013	4.886637
758.456238	901.960693	3123.760498	1016.386963	5.150161
758.773010	900.846191	3150.286865	1015.421082	5.093483
759.089783	899.954590	3172.726318	1010.888611	4.881001
759.406433	901.737793	3174.732422	1007.990784	4.674582
759.723145	906.418945	3172.651611	1020.176453	5.019675
760.039673	903.743958	3167.896484	1021.142273	5.185089
760.356201	903.669678	3184.094482	1031.024536	5.584699
760.672668	899.954529	3190.410156	1021.513855	5.307212
760.989136	902.406494	3203.561768	1030.058716	5.547310
761.305481	903.743958	3202.075928	1026.120483	5.324580
761.621826	906.641785	3218.050781	1028.275269	5.262309
761.938049	907.236145	3240.044678	1030.950195	5.303223
762.254333	908.276367	3276.378662	1032.956421	5.264977
762.570496	909.911133	3351.795898	1036.002808	5.163703
762.886597	914.443604	3475.955811	1037.488892	4.803619
763.202637	914.815125	3686.752686	1049.526001	4.859809
763.518677	905.007141	3974.080811	1062.826172	5.142237
763.834656	898.617126	4255.093750	1079.767212	5.397031
764.150574	891.335449	4442.410645	1090.243774	5.601355
764.466370	894.233215	4440.999512	1092.993042	5.603973
764.782288	900.103088	4325.979004	1082.813477	5.333246
765.097961	908.722168	4159.615234	1070.925171	4.989491
765.413696	907.979187	3971.109375	1058.888062	4.926623
765.729309	907.904968	3779.779541	1049.674561	4.936483
766.044861	905.452942	3592.016602	1039.272095	4.981052
766.360474	912.363098	3467.782471	1033.550903	4.742384
766.675903	912.140198	3364.873047	1027.458008	4.701605
766.991394	915.038025	3283.511719	1019.433350	4.407705
767.306763	913.329041	3213.592529	1007.990723	4.115254
767.622131	911.174316	3162.621094	1007.099121	4.260585
767.937378	909.093750	3117.221924	998.628601	4.054785
768.252625	903.075195	3060.900391	995.359192	4.276713
768.567810	901.514893	2998.857666	985.105469	3.985547
768.882996	898.468506	2956.356689	984.213867	4.166667
769.197998	899.805969	2911.106445	979.978516	3.986105
769.513062	897.502625	2888.369873	973.514160	3.818011
769.828064	901.737793	2858.945557	978.343933	3.914052
770.142944	902.778076	2836.580322	984.733887	4.238066
770.457825	904.412781	2813.917969	991.941223	4.583828
770.772705	907.756348	2788.878174	993.427429	4.554255
771.087402	909.391113	2773.720459	989.266418	4.284399
771.402100	910.579895	2751.132568	989.117859	4.267086
771.716736	899.657410	2729.213135	982.504883	4.528284
772.031372	896.908203	2715.764404	979.681335	4.550834
772.345947	904.264099	2699.269287	984.362488	4.462293
772.660461	908.499329	2688.049561	991.049622	4.638829
772.974854	910.728333	2669.473877	995.953613	4.845799
773.289246	905.824463	2660.557617	995.284973	5.098240
773.603638	910.282715	2640.198486	995.507874	4.926549
773.917908	909.836914	2619.913818	991.421204	4.770796
774.232178	908.202148	2600.520752	987.706055	4.697928
774.546265	900.103210	2591.158936	980.052917	4.727798
774.860474	905.675842	2572.731689	981.761902	4.564098
775.174561	908.053528	2565.449951	986.368652	4.725190
775.488586	915.409485	2560.100342	990.306641	4.553874
775.802551	907.979248	2548.137695	987.854553	4.869975
776.116516	904.561340	2537.735352	987.037354	5.050044
776.430359	903.966980	2519.531006	985.031189	5.017704
776.744202	908.945129	2527.035645	991.124023	5.078757
777.057922	910.654114	2522.800293	986.071472	4.678072
777.371704	904.264099	2523.543457	985.774231	5.033729
777.685303	899.211426	2506.676514	985.477051	5.366563
777.998962	901.143372	2497.240234	988.300476	5.460640
778.312500	901.440613	2498.131592	990.529480	5.579594
778.626038	905.452942	2511.654785	992.164246	5.398531
778.939453	902.703796	2502.961426	988.003235	5.330357
779.252869	903.372498	2488.918213	987.111633	5.281408
779.566223	897.131104	2475.766602	983.173584	5.450434
779.879578	901.143372	2479.927490	977.377930	4.828688
780.192749	905.898743	2485.723389	978.418213	4.590349
780.505920	915.112305	2476.138428	979.978516	4.155357
780.819031	913.403320	2453.847412	981.018738	4.389346
781.132141	915.781006	2434.156982	977.898132	4.091024
781.445190	918.827454	2432.002197	969.130371	3.324330
781.758118	917.787109	2425.166504	973.365540	3.687090
782.071045	915.186584	2411.197510	973.142761	3.874048
782.383911	910.579834	2399.160400	975.223206	4.342618
782.696838	902.778015	2397.748779	979.829895	5.154073
783.009583	898.765808	2392.101807	980.350098	5.463224
783.322266	897.205322	2370.256836	975.892029	5.341748
783.634888	904.858582	2362.455078	968.090271	4.338079
783.947510	908.870911	2355.916260	964.597961	3.851092
784.260132	907.310547	2352.944336	968.090149	4.204357
784.572571	903.372498	2345.439697	970.839355	4.678483
784.885010	908.499329	2340.312744	970.170654	4.307218
785.197449	913.551941	2330.876221	974.034424	4.267371
785.509766	913.626282	2312.374756	974.331604	4.339974
785.822083	903.743958	2303.532959	975.743408	5.143593
786.134277	900.103210	2300.263672	974.554504	5.317340
786.446533	905.378601	2307.173584	973.885742	4.887102
786.758606	915.038086	2305.836182	984.511047	4.995187
787.070740	920.387878	2307.768311	979.532776	4.263063
787.382690	920.610657	2319.359375	977.526611	4.069062
787.694641	915.483826	2354.504639	964.895081	3.433672
788.006653	912.957520	2394.108154	970.393555	3.877798
788.318481	911.620117	2436.163330	975.074707	4.162203
788.630310	908.276428	2478.292969	978.789795	4.491250
788.942017	909.093811	2512.026611	973.142761	3.995735
789.253784	908.127930	2531.344971	979.830078	4.417286
789.565430	908.127930	2516.781982	987.408936	4.928406
789.877014	909.019470	2488.026611	994.616272	5.420926
790.188538	908.870850	2433.785645	984.139465	4.935923
790.500061	911.025635	2384.300049	980.350098	4.705469
790.811462	901.737793	2346.925781	978.120911	5.285341
791.122925	902.926697	2315.867188	976.560608	5.211395
791.434204	899.583008	2289.118164	971.656738	5.186895
791.745483	903.595398	2265.266846	968.090149	4.736440
792.056702	905.972961	2253.230225	968.164490	4.616158
792.367920	905.898682	2237.106201	966.678406	4.565759
792.678955	901.589172	2222.468750	966.455505	4.910843
792.990112	895.199219	2212.140625	970.244934	5.698485
793.301086	902.035095	2211.248779	967.792969	5.022700
793.612122	906.270325	2201.663818	969.204651	4.858317
793.922974	907.384827	2188.066406	966.901184	4.647241
794.233826	900.920471	2182.270752	968.461670	5.271095
794.544556	898.319885	2193.416260	965.712463	5.203672
794.855286	904.487061	2196.462646	965.489563	4.721645
795.166016	904.858582	2208.053955	964.375000	4.566961
795.476624	910.654114	2212.066162	964.820801	4.162147
795.787292	902.629456	2240.449951	966.083984	4.743127
796.097778	901.366211	2264.003906	966.826965	4.803974
796.408264	901.737793	2290.901367	970.987976	4.985027
796.718689	903.892578	2313.637939	969.427551	4.648710
797.029053	909.242371	2318.690674	968.461670	4.201594
797.339355	910.877014	2317.055908	970.022034	4.206080
797.649658	911.025635	2311.854736	969.873352	4.200921
797.959839	905.898743	2291.421631	964.969421	4.263421
798.270020	905.824463	2265.564209	957.613464	3.808744
798.580078	905.230042	2232.648193	962.368835	4.304506
798.890137	908.870911	2209.317139	965.712402	4.370922
799.200195	904.264099	2194.679443	968.535950	4.980711
799.510071	906.344543	2177.441162	962.517395	4.419243
799.820007	903.223877	2170.531250	962.963196	4.713878
800.129883	895.942200	2154.704590	962.368835	5.277138
800.439575	896.016602	2143.261963	962.963196	5.367556
800.749329	897.279602	2138.209229	964.300598	5.400870
801.058960	902.406494	2131.670654	967.421387	5.288928
801.368591	902.332214	2123.051514	960.436951	4.759877
801.678162	897.056824	2104.030029	952.040771	4.555524
801.987671	902.629456	2097.937256	942.604309	3.344314
802.297119	902.109375	2097.045654	945.873596	3.662473
802.606506	908.127869	2086.791992	953.303894	3.832816
802.915894	904.561340	2078.247070	955.755859	4.361859
803.225159	903.521057	2061.603271	947.582520	3.804692
803.534424	902.852356	2061.528809	940.003723	3.206362
803.843628	899.211609	2058.854248	946.096497	4.043046
804.152771	901.440674	2057.516602	953.898254	4.537555
804.461792	902.332214	2060.414307	956.647461	4.690104
804.770874	908.053528	2051.349365	953.452454	3.970881
805.079773	909.242371	2067.324463	961.477234	4.510463
805.388733	911.471436	2071.188232	968.833191	4.946187
805.697571	905.304382	2102.469727	968.610291	5.287984
806.006470	904.932800	2114.655518	960.362610	4.582026
806.315125	905.007080	2125.875244	957.019043	4.260244
806.623901	909.762512	2120.525635	953.378235	3.602333
806.932495	907.087585	2107.819580	956.498962	4.115105
807.241150	910.133972	2099.720703	953.749695	3.666460
807.549622	911.545715	2085.454346	956.573242	3.835692
807.858154	916.078186	2075.795166	951.892151	3.088164
808.166565	911.397156	2060.562744	956.573242	3.931208
808.474915	907.979187	2048.006104	955.458679	4.164770
808.783264	902.480774	2027.572632	956.796143	4.827639
809.091492	900.623291	2013.678101	956.276062	5.000003
809.399719	900.028809	2001.863892	957.539124	5.219503
809.707825	895.199219	1993.393433	954.492676	5.399178
810.015930	891.558350	1972.737305	948.325500	5.250486
810.323975	891.632629	1968.501953	949.365906	5.361214
810.632080	904.264160	1967.907593	958.876648	5.134473
810.939880	907.161926	1970.656860	954.938538	4.492416
811.247864	911.545837	1953.121460	945.427795	3.252952
811.555664	902.852356	1943.536499	937.551697	3.334282
811.863464	908.722351	1944.279297	938.963379	2.920267
812.171143	907.384766	1939.301147	943.050110	3.456224
812.478882	907.830566	1932.985352	947.731262	3.892163
812.786438	904.338379	1918.942017	952.412354	4.738203
813.094055	908.127869	1924.291992	948.028503	3.926594
813.401489	910.356934	1918.570679	940.821106	3.021599
813.708984	909.019531	1914.558228	934.133789	2.497592
814.016357	894.233337	1912.329102	948.177002	5.298486
814.323730	888.066162	1907.945313	953.749695	6.440325
814.630981	887.768982	1904.750122	959.248108	7.028560
814.938232	897.205383	1888.552124	947.359680	5.059208
815.245361	900.920593	1893.381714	943.941711	4.334791
815.552490	901.737793	1901.629395	935.322571	3.358842
815.859619	899.211487	1909.059570	943.570129	4.392605
816.166565	898.914307	1909.802856	941.861267	4.248437
816.473572	898.468506	1901.481079	944.090393	4.548486
816.780457	900.697571	1903.264282	949.068665	4.824726
817.087341	897.799805	1895.313843	956.721863	5.906890
817.394043	903.223877	1906.087769	964.672180	6.127283
817.700806	903.000977	1916.712891	962.888977	5.907793
818.007507	905.824463	1939.449585	961.328613	5.369853
818.314209	903.000977	1947.845825	967.198486	6.144215
818.620667	907.681946	1959.065430	956.647461	4.657246
818.927246	911.099915	1979.870239	958.579346	4.442436
819.233704	912.363098	2008.774048	951.297668	3.551093
819.540161	910.802734	2063.832275	955.830139	3.905139
819.846497	906.938965	2133.899658	954.641418	3.887855
820.152832	902.629456	2233.836914	960.585632	4.353654
820.458984	900.697571	2339.198242	964.152039	4.411153
820.765259	901.886414	2444.485107	966.826965	4.209815
821.071350	905.230042	2572.657227	969.204590	3.836722
821.377502	910.728455	2764.358154	971.879578	3.298994
821.683472	910.356934	3162.100830	987.854675	3.441677
821.989441	904.635681	3914.936279	1019.581848	3.818428
822.295349	899.880188	5134.837891	1067.061401	3.947648
822.601196	902.034973	6647.419434	1128.583984	3.943148
822.907043	912.140198	8054.563965	1185.945679	3.833509
823.212769	916.226868	8881.999023	1221.536743	3.832772
823.518494	914.666504	8906.295898	1219.233398	3.811074
823.824097	902.332214	8231.477539	1188.249146	3.901095
824.129700	898.319885	7153.196777	1146.119507	3.961703
824.435242	897.353943	6026.916504	1091.804199	3.790777
824.740723	904.932861	5062.318359	1050.566162	3.503002
825.046082	902.257996	4340.839355	1021.885254	3.478971
825.351501	910.133972	3813.067139	1011.408630	3.488701
825.656799	909.465332	3452.030273	1001.674988	3.626639
825.962036	910.802734	3210.323242	996.993896	3.748223
826.267212	911.694397	3113.432373	994.096130	3.742577
826.572449	916.747009	3126.658447	997.439697	3.651399
826.877502	923.880066	3307.882813	1007.470642	3.506312
827.182495	921.428040	3598.554932	1019.730652	3.671944
827.487488	920.387756	3964.867432	1030.355957	3.612052
827.792419	905.601563	4267.502441	1036.671509	3.898686
828.097290	900.325989	4383.563965	1037.860352	3.948463
828.402100	892.895813	4266.536621	1035.928589	4.239716
828.706848	899.731689	3946.811768	1030.875977	4.303933
829.011597	899.062988	3528.859131	1018.170227	4.529143
829.316223	898.468506	3118.559326	1001.080566	4.621976
829.620789	900.994812	2777.733154	975.371826	3.963100
829.925354	899.880188	2531.047852	964.820801	3.981235
830.229797	909.539551	2349.971924	958.430847	3.394210
830.534302	912.734680	2215.038330	962.888916	3.851193
830.838562	920.313477	2116.587158	959.248108	3.254659
831.142944	912.214539	2050.086426	959.842590	4.185713
831.447144	904.561340	2014.346680	957.241943	4.746918
831.751404	895.273499	1989.678223	961.848694	6.083233
832.055542	888.586243	1962.855103	959.768250	6.626089
832.359619	885.316895	1947.474243	961.254211	7.149347
832.663635	894.010315	1970.062378	956.424561	5.800300
832.967651	896.462341	2035.820313	957.539063	5.360626
833.271545	904.041260	2161.020264	958.356445	4.321089
833.575439	901.440613	2356.733643	968.461609	4.605327
833.879211	905.230042	2621.177002	980.275818	4.373432
834.183044	902.629395	2893.125000	998.182800	4.800483
834.486694	900.623291	3097.680420	1007.024841	4.842912
834.790344	900.549011	3156.305420	1009.699707	4.838763
835.093933	904.041199	3090.844727	1003.235352	4.536034
835.397522	904.784180	2902.041260	996.176514	4.575892
835.700928	902.332214	2683.814209	982.802063	4.517017
836.004395	903.966980	2449.388916	965.563904	3.985768
836.307739	907.162048	2272.251221	951.594971	3.254947
836.611023	914.443665	2123.125732	946.988220	2.692565
836.914307	909.539551	2016.575806	945.650696	3.261966
837.217529	903.372498	1918.644897	943.941711	3.995894
837.520691	889.329285	1853.927124	950.034607	6.293330
837.823730	890.964050	1793.444824	946.096497	6.108988
838.126831	897.428223	1755.179077	942.827332	5.292809
838.429749	911.545715	1711.340332	931.310364	2.471215
838.732727	911.842957	1680.504517	932.647766	2.706628
839.035522	907.384827	1659.774048	928.561096	2.814537
839.338379	904.635559	1662.746460	929.898621	3.332370
839.641113	904.784180	1680.653320	933.316467	3.677461
839.943848	913.774902	1720.851074	941.638428	3.452403
840.246460	917.564392	1777.172485	941.415527	2.774652
840.549072	914.963684	1842.707520	939.334961	2.626940
840.851563	911.174255	1880.081665	943.941711	3.381897
841.154053	913.329041	1891.152832	940.077942	2.735554
841.456482	918.010193	1851.252319	942.827148	2.659220
841.758850	904.635681	1792.627563	942.752930	4.292522
842.061157	895.124939	1709.333984	944.536194	6.068620
842.363403	893.787415	1632.950806	935.174072	5.599122
842.665588	903.966980	1579.898804	929.378418	3.759468
842.967712	904.412781	1542.970337	931.830383	4.293677
843.269775	899.434387	1527.663940	945.279114	7.297448
843.571777	892.524231	1507.082031	942.752930	8.173144
843.873840	894.456238	1488.357788	945.056335	8.519947
844.175659	894.307617	1470.302246	939.186340	7.791518
844.477600	900.400391	1452.841187	946.245117	8.298577
844.779297	894.456238	1436.420288	942.307129	8.829164
845.081116	897.056824	1433.373901	946.170898	9.157657
845.382751	896.462341	1424.754761	940.598145	8.354426
845.684387	904.189880	1419.256470	940.523865	7.054231
845.985962	901.886475	1402.241089	934.356689	6.489440
846.287537	902.852356	1389.089355	929.304138	5.440101
846.588989	899.211487	1383.665161	932.647705	6.901840
846.890381	907.310547	1367.690063	932.424866	5.455134
847.191711	909.688171	1357.733643	936.511536	5.986751
847.493042	907.607666	1349.188843	930.864502	5.266718
847.794250	904.115479	1359.888550	926.554993	4.923396
848.095459	899.805908	1359.739868	925.366150	5.557372
848.396606	904.338379	1355.355957	920.536438	3.591447
848.697693	898.691406	1343.095947	917.044189	4.129747
848.998657	903.000977	1347.034058	912.214417	2.074944
849.299622	907.161926	1342.575806	920.907898	3.156990
849.600464	913.403381	1342.798828	919.050293	1.315084
849.901367	909.093811	1335.145630	922.319641	3.104277
850.202087	897.799805	1322.662720	914.666443	3.969901
850.502808	889.626465	1312.483276	918.604492	6.852917
850.803467	896.611023	1309.734131	916.598328	4.838099
851.104065	906.493164	1320.136475	922.468262	3.862047
851.404663	912.585999	1312.186035	929.675598	4.276676
851.705139	908.499329	1307.876465	928.115295	4.911640
852.005615	909.168030	1301.337769	926.777832	4.490352
852.306030	915.558105	1302.378052	923.285645	1.997710
852.606384	916.524109	1302.378052	921.502380	1.290196
852.906616	916.226868	1300.669067	922.616882	1.662152
853.206909	912.957520	1305.424438	917.341309	1.116983
853.506958	916.746887	1298.068481	920.090576	0.876868
853.807129	915.409485	1293.833374	910.654114	-1.256626
854.107178	912.808838	1286.551636	910.579895	-0.596384
854.407166	906.344543	1284.768433	913.849182	1.983130
854.707092	906.716003	1281.573364	920.685059	3.726499
855.007019	909.762451	1276.669434	918.753113	2.450393
855.306763	910.133972	1273.400024	912.808899	0.736355
855.606567	908.573669	1267.901611	907.236267	-0.372195
855.906250	902.629395	1269.536255	906.790344	1.134062
856.205933	905.973083	1259.134033	912.437500	1.830445
856.505493	902.778015	1260.768677	915.632507	3.590734
856.805054	907.459167	1271.913940	920.982239	3.710494
857.104492	906.195984	1283.505249	922.245300	4.253623
857.403931	911.397156	1289.598022	928.189636	4.440096
857.703308	908.870850	1284.173950	926.109131	4.593163
858.002563	910.505554	1285.214233	921.799622	3.014093
858.301819	911.397217	1280.978882	920.833679	2.553282
858.601013	914.220703	1265.003784	926.034851	3.367935
858.900208	914.294922	1255.790405	931.384583	5.004359
859.199219	914.294983	1242.341431	927.669495	4.077018
859.498291	916.746887	1248.508667	925.589050	2.665215
859.797302	908.053528	1250.514771	919.421875	3.319601
860.096191	899.360168	1260.025513	925.811829	7.334128
860.395020	892.821472	1249.474487	926.034729	9.312485
860.693787	896.685242	1249.920410	923.880066	7.698787
860.992554	897.948425	1246.428101	913.551941	4.477597
861.291260	903.223938	1248.285645	910.654114	2.153289
861.589844	902.035156	1233.425171	913.997803	3.609839
861.888428	911.917297	1229.264160	919.867676	2.505265
862.186890	907.013367	1230.081543	916.672668	2.989865
862.485413	913.254700	1235.728516	916.152527	0.898624
862.783813	909.242432	1239.889526	919.050354	2.966281
863.082153	909.762512	1242.713013	921.650940	3.570629
863.380371	913.477722	1240.038086	922.691223	2.821378
863.678589	914.294922	1238.774902	928.338196	4.327932
863.976746	919.867676	1240.038208	929.304138	2.947324
864.274902	913.031738	1246.205200	931.904724	5.664613
864.572937	906.418945	1248.582886	928.635437	6.492938
864.870911	901.514893	1244.124756	935.322693	9.867725
865.168884	898.022705	1247.468384	934.579590	10.461392
865.466736	903.521057	1247.765625	934.802490	9.086980
865.764587	904.412781	1245.685181	923.211243	5.508345
866.062317	901.960693	1235.505737	921.873840	5.970152
866.360107	902.109314	1234.539673	914.740784	3.799734
866.657715	904.635559	1243.604614	921.428040	4.953986
866.955322	908.499329	1247.839844	921.799561	3.919435
867.252808	909.985413	1251.926514	920.536377	3.085609
867.550293	904.635559	1242.192871	918.827454	4.204292
867.847717	907.459167	1232.310669	912.660339	1.601092
868.145081	902.778076	1228.892700	913.997803	3.440424
868.442383	902.034973	1232.236206	912.957520	3.307845
868.739624	902.332214	1239.666504	917.341370	4.449342
869.036804	901.143372	1231.419067	916.895569	4.769409
869.333984	907.236267	1230.378784	920.016296	3.954920
869.631042	908.870911	1228.669800	924.920227	5.018565
869.928101	915.929688	1226.143555	933.985168	5.820333
870.224976	914.072083	1222.428345	928.858337	4.795186
870.521851	912.808899	1219.604858	927.892395	4.916459
870.818726	911.991516	1223.840088	920.907959	2.859222
871.115479	914.072083	1227.183716	930.121521	5.125788
871.412231	912.585999	1237.066040	927.595154	4.625602
871.708862	908.053528	1240.929810	928.189514	6.049090
872.005493	901.217712	1240.558228	923.062683	6.437478
872.302063	904.189758	1237.214600	921.651062	5.243244
872.598572	908.053467	1226.663574	921.428040	4.197787
872.895020	913.923523	1230.898804	915.186584	0.398473
873.191406	916.449768	1232.533569	919.421875	0.940291
873.487671	914.889465	1240.706909	914.666504	-0.068431
873.783997	910.134094	1236.174316	916.226868	1.868718
874.080200	906.939026	1240.335327	906.790466	-0.044559
874.376343	906.493164	1231.938965	910.059753	1.095909
874.672424	909.762512	1228.818359	915.632507	1.839802
874.968445	909.242371	1223.022827	920.907959	3.717755
875.264465	904.412781	1233.573730	927.446594	6.997736
875.560364	902.926697	1233.499390	926.034851	6.990340
875.856201	904.041260	1230.973145	922.245422	5.568182
876.152039	904.709961	1225.548950	910.356934	1.760064
876.447754	905.898743	1232.459106	907.830627	0.591586
876.743469	897.725525	1241.226807	917.489990	5.753826
877.039063	904.858582	1238.849243	923.731445	5.650716
877.334595	909.688171	1243.233032	926.629211	5.079089
877.630127	916.003906	1242.564331	920.536438	1.387961
877.925537	919.347595	1253.486816	915.260925	-1.223044
878.221008	909.093750	1248.434204	911.025635	0.569306
878.516296	905.601563	1249.548828	905.898743	0.086403
878.811646	900.623291	1260.917114	909.316711	2.412870
879.106812	904.635681	1272.879883	915.186707	2.865225
879.401978	900.920471	1297.028198	924.177246	5.871326
879.697083	906.418945	1326.526489	918.307373	2.829854
879.992126	904.858582	1363.009155	909.539612	1.021723
880.287109	912.288818	1422.451294	913.849121	0.305844
880.582031	905.081482	1496.233887	926.332031	3.594767
880.876892	903.149597	1654.795898	943.718933	5.397397
881.171753	900.251770	1932.390991	957.167725	5.514368
881.466492	903.000977	2398.194580	979.235657	5.098650
881.761230	908.276428	3021.594482	1013.934998	4.999653
882.055786	906.121643	3638.381592	1048.039917	5.194171
882.350403	903.372559	4044.446045	1063.494751	5.097690
882.644958	904.784180	4107.454590	1067.507202	5.080854
882.939453	910.208313	3858.242920	1056.138794	4.950094
883.233826	911.322815	3445.045654	1043.581787	5.219946
883.528137	902.629395	2990.610352	1019.804871	5.611904
883.822449	904.338379	2606.688232	991.198303	5.102355
884.116577	901.217773	2295.954102	969.427551	4.890514
884.410828	907.830750	2063.386475	960.511230	4.558887
884.704956	898.691406	1870.645142	954.864258	5.779375
884.999023	900.177429	1727.315308	961.477234	7.411075
885.292969	896.685242	1626.337891	951.446350	7.505093
885.586914	908.945129	1557.682251	949.960266	6.322305
885.880798	908.350769	1504.852905	927.000732	3.126554
886.174622	910.505554	1458.785156	920.387756	1.802402
886.468384	910.579834	1431.887695	911.843018	0.242310
886.762085	908.870850	1408.853882	928.115295	3.849020
887.055664	909.391052	1389.758179	925.886230	3.433869
887.349304	897.576843	1359.442505	927.966614	6.579786
887.642822	903.000977	1328.904175	924.771667	5.111652
887.936340	902.406555	1307.059082	922.691223	5.012861
888.229736	902.629395	1279.567261	917.490051	3.942469
888.523071	900.623230	1268.496094	908.425049	2.120792
888.816284	905.007141	1249.177368	914.369202	2.720183
889.109619	917.564270	1234.316772	919.124695	0.492632
889.402710	911.694397	1220.793579	921.576660	3.197117
889.695862	905.230164	1207.939331	927.149414	7.241026
889.988892	893.861816	1211.951660	929.378479	11.165607
890.281921	896.313782	1218.193115	929.527039	10.318542
>>>>>End Processed Spectral Data<<<<<
