Jaz Data File
++++++++++++++++++++++++++++++++++++
Date: Fri Jun 04 13:38:01 2021
User: jaz
Dark Spectrum Present: Yes
Reference Spectrum Present: Yes
Processed Spectrum Present: Yes
Spectrometers: JAZA3586
Integration Time (usec): 30700 (JAZA3586)
Spectra Averaged: 10 (JAZA3586)
Boxcar Smoothing: 1 (JAZA3586)
Correct for Electrical Dark: No (JAZA3586)
Strobe/Lamp Enabled: Yes (JAZA3586)
Correct for Detector Non-linearity: No (JAZA3586)
Correct for Stray Light: No (JAZA3586)
Number of Pixels in Processed Spectrum: 2048
>>>>>Begin Processed Spectral Data<<<<<
W	D	R	S	P
191.335022	0.000000	0.000000	0.000000	0.000000
191.713211	290.375031	294.164459	291.340942	25.489643
192.091385	586.397034	587.808777	582.607605	-268.421967
192.469528	886.431458	888.140381	877.143555	-543.494385
192.847641	899.657288	900.549011	890.963867	-974.900757
193.225739	907.161926	913.180420	908.499329	22.221546
193.603790	918.233093	923.137024	922.914063	95.453415
193.981842	924.771729	924.102966	919.496277	788.838196
194.359863	931.310242	928.486816	911.545715	700.019470
194.737854	934.653809	925.366150	917.118469	188.802582
195.115829	935.174011	929.155518	924.400146	179.012650
195.493774	934.951111	928.561096	937.328796	-37.209393
195.871704	940.003723	937.700378	930.938782	393.555573
196.249603	938.814880	935.991394	933.687988	181.580200
196.627457	935.025391	938.889160	929.378418	-146.151901
197.005310	920.982178	929.972900	930.418640	104.957771
197.383133	924.548767	937.551758	925.514648	7.428148
197.760910	929.972839	945.502136	928.635437	-8.612124
198.138687	931.756165	951.372070	930.270081	-7.575913
198.516449	930.195801	942.307129	931.384583	9.815454
198.894180	923.359863	927.223694	923.062683	-7.691336
199.271866	918.010193	920.759338	916.969788	-37.844677
199.649536	919.273254	924.548828	916.003906	-61.971424
200.027191	918.976074	921.428040	917.861511	-45.455902
200.404816	923.805725	929.304016	919.050354	-86.488167
200.782410	924.177246	933.687988	922.988464	-12.499358
201.159988	923.582764	952.189270	924.994629	4.935469
201.537537	923.731445	956.944763	930.270081	19.686787
201.915070	915.632385	959.916809	927.595215	27.013628
202.292557	918.010071	958.579407	921.205139	7.875575
202.670029	919.793457	961.402893	917.935852	-4.464384
203.047485	918.530273	956.944641	914.294983	-11.025277
203.424911	913.403320	959.619629	916.301208	6.270272
203.802292	911.917297	958.505066	914.443604	5.422681
204.179688	908.647949	966.529785	913.403381	8.215759
204.557037	911.397217	959.619629	914.443604	6.317367
204.934357	906.641785	962.443115	919.570496	23.169180
205.311661	908.722351	953.303894	922.468262	30.833187
205.688934	910.654114	957.687744	920.016296	19.905294
206.066177	911.397156	956.870422	922.542664	24.510023
206.443390	906.418945	960.288330	920.759277	26.620560
206.820587	905.304382	957.984924	922.542664	32.722294
207.197769	904.932861	956.573242	914.146423	17.841778
207.574921	910.059753	965.638184	911.248596	2.139036
207.952042	908.350769	968.610291	910.134094	2.959408
208.329147	904.412781	961.477234	913.997803	16.796835
208.706223	918.233093	968.164490	923.731445	11.011813
209.083267	914.666504	964.226379	924.845947	20.539686
209.460297	920.164856	964.375000	915.558105	-10.420121
209.837280	904.784363	950.108887	909.911133	11.311250
210.214264	907.830750	954.492737	914.220703	13.694131
210.591217	904.858582	955.161438	922.171082	34.416534
210.968124	904.709961	961.625793	923.211243	32.506390
211.345016	901.514893	961.848694	917.341309	26.231426
211.721893	901.737793	969.056152	915.706726	20.750555
212.098724	902.778076	963.409119	912.957520	16.789162
212.475555	905.378723	967.941589	912.214539	10.926314
212.852356	903.223938	969.947754	913.031799	14.699191
213.229126	908.425110	969.056152	916.375488	13.112720
213.605865	907.682068	963.037598	921.056458	24.160892
213.982590	908.870911	955.310059	922.542542	29.439882
214.359283	904.561340	954.789978	917.341309	25.443590
214.735931	907.087646	952.783752	915.855286	19.186840
215.112579	912.214539	956.350281	906.270325	-13.468027
215.489197	902.406555	959.693909	906.121765	6.485219
215.865799	899.508789	964.895203	902.778076	4.999949
216.242355	891.632629	965.415283	908.945251	23.464354
216.618896	894.010315	957.464844	913.923523	31.381855
216.995407	896.239441	954.269836	913.997742	30.601723
217.371902	899.954529	948.919983	908.499329	17.450670
217.748367	901.886414	949.811707	909.019531	14.883827
218.124802	895.942200	947.359680	906.790344	21.098164
218.501236	895.645020	954.566956	906.493164	18.411045
218.877609	905.527344	964.226379	901.812073	-6.329356
219.253983	911.620117	975.371826	907.310547	-6.759929
219.630295	911.620117	978.789734	907.607727	-5.973519
220.006592	906.344543	971.136536	905.155762	-1.834767
220.382889	901.291992	971.582336	894.976257	-8.985209
220.759140	905.081482	967.198547	901.737793	-5.382883
221.135391	903.372559	971.136536	907.236267	5.701715
221.511581	909.242432	961.997314	920.833679	21.971895
221.887772	907.236267	960.808411	918.753113	21.497826
222.263931	913.774902	963.409119	919.347473	11.227277
222.640060	912.065918	968.090149	916.969910	8.753341
223.016159	910.951416	971.210754	922.171082	18.618965
223.392212	906.790344	971.730957	921.130859	22.082506
223.768265	902.778015	978.566833	924.177246	28.235340
224.144302	906.567444	982.876404	920.313538	18.013735
224.520294	910.579834	988.300476	922.245422	15.009640
224.896286	907.459167	985.551270	921.873840	18.458553
225.272217	904.487061	988.151855	922.616882	21.669594
225.648148	901.143372	988.671936	923.062683	25.042467
226.024048	908.350769	988.077637	922.468262	17.707321
226.399902	910.059753	987.408875	926.554932	21.325619
226.775772	905.527344	995.359314	927.595215	24.565722
227.151581	902.852356	1007.024719	927.520935	23.680540
227.527374	894.902039	1014.380676	924.474426	24.751192
227.903137	896.165039	1030.504395	916.747009	15.320879
228.278870	898.988586	1044.919067	911.843018	8.808599
228.654572	896.016418	1060.299683	915.706726	11.985583
229.030273	893.415833	1062.454468	919.942078	15.692415
229.405930	895.793518	1063.569214	928.041016	19.220602
229.781555	903.892578	1068.398804	918.455994	8.852805
230.157181	913.997742	1072.931274	918.604553	2.898577
230.532761	913.849121	1073.599976	914.294983	0.279098
230.908325	915.409485	1064.312134	923.062744	5.139774
231.283859	911.471497	1056.658813	929.378479	12.333710
231.659332	911.694397	1052.052124	920.164856	6.034907
232.034821	903.892578	1049.377319	915.409485	7.916230
232.410263	898.096985	1045.439331	913.774902	10.640470
232.785690	888.883484	1039.643677	920.536438	20.995565
233.161087	889.329285	1041.947144	926.257751	24.196688
233.536469	900.846191	1047.148193	921.502380	14.118870
233.911804	901.143372	1060.522827	921.428040	12.727279
234.287140	901.886414	1064.535034	916.003967	8.679787
234.662430	892.152771	1061.414429	916.969910	14.661997
235.037704	898.394226	1063.569214	916.301086	10.841146
235.412933	906.938965	1061.785889	916.152527	5.950110
235.788162	906.938965	1067.878540	913.849121	4.293634
236.163345	908.796570	1060.745605	913.626282	3.178508
236.538513	901.069153	1064.312134	914.369324	8.147469
236.913635	895.867920	1073.377197	919.199036	13.143603
237.288742	892.524353	1080.138672	921.353760	15.366315
237.663834	895.570740	1092.250000	925.217468	15.073643
238.038879	900.251770	1087.866089	923.062744	12.158440
238.413910	903.818298	1096.039429	921.279480	9.083903
238.788910	905.155701	1097.971313	921.725281	8.593485
239.163879	907.384766	1111.345825	921.576660	6.958139
239.538834	905.898743	1119.147461	926.257751	9.547072
239.913757	906.047363	1138.763550	929.304199	9.993648
240.288651	909.539551	1160.014038	927.818115	7.297575
240.663528	906.121643	1188.323364	930.121399	8.504468
241.038361	900.400391	1210.094116	930.938782	9.860836
241.413177	897.279602	1237.734741	936.511475	11.523360
241.787979	901.514893	1268.644653	940.226624	10.544427
242.162735	907.904968	1314.638062	942.158508	8.421626
242.537476	909.019470	1344.582031	941.935547	7.557141
242.912170	906.938965	1363.380493	946.839600	8.741675
243.286865	903.521057	1361.745850	941.935608	8.383342
243.661514	903.372498	1346.811035	940.078064	8.277487
244.036148	910.134033	1335.591309	934.356689	5.693323
244.410751	911.991638	1318.427368	933.836609	5.374766
244.785339	908.127930	1327.863892	937.105957	6.903871
245.159882	905.675964	1339.157959	940.003723	7.919074
245.534378	906.641846	1374.600220	947.879822	8.812317
245.908890	908.870850	1432.853638	956.498962	9.089633
246.283356	909.242371	1516.518555	955.607239	7.634890
246.657791	908.053528	1598.623047	958.727966	7.338065
247.032196	910.282654	1666.907227	958.430847	6.363551
247.406586	909.019531	1703.761353	971.285156	7.834698
247.780960	909.985413	1715.204102	972.325378	7.741992
248.155289	910.505554	1695.513794	975.297546	8.253671
248.529602	906.195984	1655.018677	966.009705	7.987701
248.903870	905.898743	1599.588989	961.254333	7.979872
249.278122	910.728455	1532.493652	945.427795	5.580779
249.652344	910.282532	1478.624023	936.065674	4.536558
250.026550	914.517883	1438.946411	932.424805	3.414559
250.400711	908.945129	1419.033325	943.867432	6.846326
250.774857	910.431213	1411.454468	943.050049	6.510443
251.148987	905.304382	1426.017944	947.879700	8.176341
251.523071	902.257996	1457.224976	946.245117	7.926079
251.897125	899.805969	1495.490845	954.046875	9.105638
252.271164	896.313782	1516.741577	951.372009	8.874236
252.645187	899.360168	1517.484497	953.601074	8.775081
253.019165	906.790466	1494.822266	952.783875	7.821585
253.393112	907.904968	1476.469360	950.926208	7.566643
253.767044	903.372498	1455.664551	946.468018	7.803031
254.140930	894.976257	1439.243774	946.319519	9.433460
254.514801	902.852356	1423.268555	945.353516	8.166763
254.888657	908.499329	1417.844604	945.799316	7.323124
255.262466	909.539551	1426.835083	942.752930	6.420581
255.636276	903.149597	1434.934204	947.582581	8.355448
256.010010	904.858582	1458.636719	943.941711	7.057543
256.383759	909.539551	1485.608765	942.381409	5.701026
256.757446	915.335205	1529.595825	942.752930	4.463533
257.131134	907.830750	1568.827759	950.703308	6.486044
257.504791	910.356934	1631.464844	958.133606	6.625454
257.878418	908.053528	1711.117554	967.049866	7.346405
258.252014	911.248596	1809.196899	977.675110	7.397588
258.625580	909.019531	1926.372437	984.288086	7.398470
258.999115	901.886414	2067.621826	983.322266	6.985793
259.372650	904.932800	2236.586182	985.254089	6.031697
259.746124	900.549011	2375.755127	989.340759	6.018939
260.119598	897.799805	2457.636719	997.142517	6.368788
260.493042	900.697571	2459.940186	1000.709045	6.414106
260.866425	902.332275	2388.312256	999.668762	6.550323
261.239838	908.870911	2272.251709	994.021790	6.245568
261.613159	900.697571	2137.837891	983.099304	6.660662
261.986511	903.966980	2037.157715	981.761902	6.865122
262.359802	900.697571	1970.285156	976.783630	7.113588
262.733063	897.502625	1942.718872	980.201477	7.912128
263.106293	896.239441	1929.864624	975.000305	7.619866
263.479523	907.682129	1914.038086	967.718750	5.965744
263.852692	912.957581	1896.279663	959.248108	4.707565
264.225861	911.917297	1879.487305	950.777649	4.016283
264.598969	900.697571	1885.728882	954.121277	5.423554
264.972076	894.010315	1907.573853	961.031433	6.612424
265.345154	901.143372	1958.173828	971.433777	6.649799
265.718201	903.149597	2023.040161	967.941589	5.785564
266.091217	913.031921	2088.054932	962.517395	4.211447
266.464203	906.270325	2145.565430	969.278992	5.084234
266.837158	908.276428	2190.146973	983.322266	5.854400
267.210114	903.818298	2228.784424	985.328430	6.151865
267.583038	908.647949	2253.155762	974.851746	4.924017
267.955902	911.397156	2267.644775	969.278992	4.267793
268.328766	912.511719	2270.022461	978.418213	4.854952
268.701569	906.716125	2277.526855	982.430603	5.523335
269.074371	906.939026	2296.399658	980.795898	5.315506
269.447144	910.505554	2342.541992	972.474060	4.327300
269.819885	911.620117	2416.101563	973.662903	4.123865
270.192596	911.843018	2523.320313	983.173584	4.426408
270.565277	907.384766	2670.588135	993.724609	4.896760
270.937927	908.202148	2812.358154	1004.721375	5.068872
271.310577	904.041199	2922.845947	1003.532532	4.928230
271.683136	904.784180	2979.093018	1003.383972	4.753380
272.055725	901.589172	2992.021729	1001.674988	4.787804
272.428284	901.663513	2964.827148	1004.869934	5.002338
272.800812	901.737793	2915.787354	1003.161072	5.035789
273.173279	901.886414	2842.376221	1005.984558	5.364530
273.545776	900.994812	2804.555908	1000.560486	5.230495
273.918152	901.514893	2764.803955	1000.040344	5.287717
274.290558	904.487000	2763.021240	998.405579	5.053369
274.662964	905.452942	2738.798096	1002.715271	5.305183
275.035278	902.555176	2755.516357	1002.566589	5.397383
275.407593	907.236267	2785.460205	1001.452148	5.016222
275.779907	906.195984	2853.150391	1000.857666	4.862039
276.152161	907.384766	2912.963867	999.743164	4.605074
276.524384	897.056702	2960.666260	997.513977	4.868037
276.896606	899.285828	2994.325439	999.445862	4.780818
277.268799	900.474670	2998.635010	1005.315735	4.996809
277.640930	901.217773	3007.253906	1007.916321	5.066321
278.013031	904.561340	3017.210693	1009.699707	4.976612
278.385162	903.818298	3042.399170	1011.408691	5.030925
278.757233	901.069092	3051.984375	1016.907043	5.385519
279.129272	899.954590	3071.748779	1016.758484	5.378221
279.501282	899.731628	3105.705078	1015.569580	5.251104
279.873230	905.378662	3175.475342	1016.164063	4.880206
280.245178	911.025696	3283.883057	1024.708862	4.790982
280.617126	917.341370	3417.182373	1022.776917	4.217690
280.988983	918.233093	3555.756836	1024.931763	4.045411
281.360870	914.369324	3686.306641	1017.798767	3.731305
281.732697	912.660339	3783.643311	1019.582031	3.724219
282.104492	911.917236	3835.803711	1013.786377	3.484032
282.476288	914.146423	3831.196533	1022.182617	3.703611
282.848053	912.214539	3815.964844	1028.646973	4.009726
283.219757	911.620117	3812.769775	1031.841919	4.143937
283.591461	909.985413	3805.191406	1024.857422	3.967663
283.963135	907.830750	3818.119873	1028.349609	4.141130
284.334747	907.087646	3878.601807	1029.315552	4.113321
284.706360	900.771912	3982.997314	1037.191650	4.426014
285.077942	897.651123	4096.309082	1038.603394	4.406607
285.449524	901.737793	4188.444336	1050.194702	4.516890
285.821014	900.177429	4207.986328	1043.284546	4.326342
286.192535	903.075256	4252.790527	1051.532104	4.431924
286.563995	896.536621	4252.790527	1046.405151	4.465352
286.935425	898.691406	4246.771973	1048.411377	4.471815
287.306824	905.007080	4154.339355	1026.269165	3.731908
287.678223	912.957520	4069.114258	1019.136047	3.364172
288.049561	915.781006	4006.625244	1018.021484	3.307850
288.420898	910.654114	3983.368408	1028.943970	3.849686
288.792145	913.626282	4018.959717	1033.030640	3.845138
289.163452	912.660339	4134.500488	1033.625122	3.754525
289.534668	912.808899	4292.839355	1038.083252	3.706308
289.905914	908.870911	4434.980957	1045.142090	3.864632
290.277039	914.220703	4534.249512	1058.145020	3.975778
290.648193	910.208313	4581.431641	1061.340210	4.116663
291.019318	903.743958	4572.960938	1063.717773	4.359890
291.390381	901.886414	4503.784668	1056.287598	4.286662
291.761475	905.007141	4411.426758	1054.281372	4.257170
292.132507	910.654236	4352.875977	1051.234863	4.084009
292.503510	901.143494	4340.616211	1051.829224	4.381071
292.874481	905.378662	4400.652832	1056.881958	4.334518
293.245422	907.236267	4506.088379	1055.172974	4.110664
293.616364	912.734680	4680.476563	1063.271973	3.995425
293.987213	910.208313	4840.153809	1068.175781	4.019584
294.358093	906.567566	4956.140137	1077.092163	4.210928
294.728943	908.202148	5062.838867	1077.463745	4.074041
295.099731	910.356873	5194.503418	1072.856934	3.793056
295.470490	910.133972	5331.814941	1082.219116	3.891849
295.841248	905.007141	5464.296875	1089.500854	4.046545
296.211975	903.298157	5576.196777	1091.952759	4.037208
296.582642	904.264099	5709.569824	1091.952759	3.905863
296.953308	904.412659	5781.643066	1096.559570	3.939672
297.323883	907.979187	5770.943848	1100.200317	3.952756
297.694519	902.183594	5639.873535	1093.958862	4.047864
298.065063	910.282532	5491.268066	1081.104614	3.728938
298.435608	903.743958	5310.118652	1071.519409	3.807562
298.806122	896.239319	5126.516113	1061.562866	3.908102
299.176575	900.325989	4927.979004	1060.894287	3.986647
299.547028	905.007141	4815.781738	1058.145142	3.915797
299.917450	913.106201	4759.460938	1059.705444	3.811381
300.287872	908.499329	4750.247559	1059.036743	3.918461
300.658234	905.081543	4722.829590	1069.810669	4.314825
301.028564	907.384827	4699.052246	1073.599976	4.383695
301.398865	906.047424	4647.337891	1062.528931	4.182554
301.769135	906.196045	4590.199219	1054.058472	4.013635
302.139374	905.452942	4539.079590	1048.039917	3.924095
302.509583	895.719299	4489.964844	1051.309204	4.328861
302.879791	897.428223	4420.417480	1040.683960	4.066312
303.249939	901.366272	4371.897949	1038.974976	3.965061
303.620087	911.471497	4335.117676	1043.730347	3.863099
303.990173	910.356934	4337.272949	1048.857178	4.041542
304.360260	910.579834	4326.201660	1052.275146	4.148448
304.730286	905.229980	4312.530273	1049.080078	4.221820
305.100281	898.914307	4302.053223	1048.039917	4.382002
305.470276	893.118652	4330.659668	1038.009033	4.214942
305.840179	894.456116	4362.906738	1039.346436	4.177379
306.210144	899.657410	4403.848145	1042.021362	4.062677
306.579987	904.338379	4423.314941	1060.448364	4.436233
306.949890	909.836914	4466.262207	1078.281128	4.736335
307.319702	908.573730	4555.722656	1098.119873	5.197104
307.689484	909.688232	4673.715332	1108.299438	5.276562
308.059265	916.152527	4802.630371	1126.057739	5.400911
308.429016	918.233093	4897.069336	1159.642578	6.067339
308.798737	920.313477	4971.595215	1203.778320	6.996918
309.168396	905.675842	5032.746582	1242.192993	8.153898
309.538055	902.406555	5069.823242	1270.799438	8.839838
309.907684	892.524231	5069.674805	1309.436890	9.980791
310.277313	897.131042	5084.312012	1360.259766	11.060633
310.646851	901.143372	5071.829590	1419.107544	12.419160
311.016388	907.830566	5064.473145	1479.812988	13.760683
311.385895	905.007141	4996.263184	1533.088013	15.351786
311.755371	905.675842	4930.431641	1590.598267	17.017738
312.124817	907.310547	4863.855957	1643.501831	18.606920
312.494232	911.322815	4804.934082	1699.228882	20.235868
312.863617	906.864746	4780.265625	1749.829102	21.762899
313.232971	900.251770	4804.339844	1800.280640	23.053497
313.602295	899.360168	4883.323730	1860.465820	24.124357
313.971619	895.645020	4987.792969	1916.341431	24.942802
314.340820	897.874023	5022.641113	1950.074829	25.509338
314.710083	899.360168	5028.213867	1964.118164	25.788225
315.079285	907.607727	4951.162109	1954.384399	25.887535
315.448486	911.620056	4873.218262	1930.830688	25.727259
315.817596	909.390930	4723.201172	1873.691895	25.284451
316.186707	904.784241	4579.054199	1832.156616	25.239635
316.555786	907.087585	4472.949219	1808.974121	25.292248
316.924866	912.808899	4415.884766	1818.707642	25.860094
317.293884	918.530273	4422.126465	1850.880859	26.611246
317.662872	914.443665	4445.605957	1895.908203	27.794376
318.031830	913.329102	4509.506348	1948.737427	28.791916
318.400757	911.248535	4545.097656	1982.025024	29.466730
318.769684	905.007141	4576.229980	1994.359375	29.672737
319.138550	903.521057	4565.084961	1982.768188	29.475029
319.507416	901.366272	4539.524902	1964.860962	29.231672
319.876190	906.195984	4483.797852	1968.427734	29.691166
320.244995	908.499329	4397.160645	1990.941406	31.027435
320.613770	908.425110	4349.161133	2027.869751	32.535030
320.982483	910.282654	4342.622559	2100.835205	34.686321
321.351166	902.629395	4394.634277	2187.843506	36.804478
321.719818	895.867920	4458.237793	2295.582520	39.291668
322.088440	894.084656	4582.694824	2414.912842	41.230385
322.457062	894.902039	4755.596680	2549.846436	42.866493
322.825623	903.372559	4959.111816	2696.445801	44.210762
323.194183	904.264099	5104.968262	2819.194092	45.585926
323.562653	898.914307	5203.567871	2930.053467	47.184734
323.931183	899.211487	5218.577637	3023.377930	49.177734
324.299591	894.827637	5180.014160	3094.782471	51.338600
324.668060	905.081482	5083.271973	3145.903076	53.631390
325.036407	905.378601	5012.535645	3188.180908	55.581078
325.404755	909.539551	4941.428223	3214.038330	57.156807
325.773102	906.939026	4882.208984	3242.719482	58.757782
326.141388	907.236267	4790.519531	3239.449951	60.057777
326.509674	902.852356	4685.604004	3199.772461	60.720882
326.877899	900.474670	4603.945313	3142.187744	60.530064
327.246124	900.474670	4542.645508	3108.157227	60.614471
327.614288	911.471497	4500.367676	3111.203857	61.292728
327.982422	914.517883	4485.135254	3153.704834	62.711479
328.350525	921.205261	4500.887207	3205.716797	63.818840
328.718628	916.449768	4556.763184	3264.638672	64.505127
329.086700	915.260925	4619.103027	3327.944580	65.140022
329.454712	905.898743	4683.448730	3378.544922	65.456345
329.822693	899.880188	4709.900879	3418.371094	66.101768
330.190674	897.205383	4747.201172	3438.581787	66.009850
330.558563	902.332275	4778.779785	3457.231445	65.908264
330.926483	909.168152	4874.184082	3512.661377	65.661606
331.294312	911.694336	4980.659668	3581.167969	65.605713
331.662231	908.796631	5100.212891	3680.436768	66.126579
332.029999	905.007141	5224.669922	3770.343018	66.332405
332.397766	905.304382	5300.087402	3835.803467	66.681313
332.765503	903.000977	5360.049805	3873.251953	66.641655
333.133240	901.069153	5365.548340	3887.518311	66.893570
333.500916	898.022705	5373.052734	3890.044922	66.860382
333.868561	901.663513	5352.248047	3896.583252	67.292725
334.236176	901.291992	5312.644531	3871.989258	67.342094
334.603790	907.310547	5261.227051	3852.224609	67.638275
334.971344	899.508789	5224.893066	3803.259033	67.132767
335.338867	907.607727	5211.741699	3797.909424	67.151764
335.706360	901.366394	5208.100098	3788.101563	67.028404
336.073853	906.939026	5227.122559	3817.896484	67.380409
336.441284	905.081482	5249.562012	3833.277344	67.400368
336.808655	909.093750	5300.904785	3878.899414	67.621437
337.176086	911.099915	5344.223145	3914.787354	67.755562
337.543396	906.493164	5387.393066	3947.109131	67.857262
337.910706	901.812073	5391.033691	3958.031494	68.079048
338.277954	905.007141	5373.646973	3949.115234	68.121582
338.645264	901.960754	5333.820801	3918.130859	68.056534
339.012421	905.824524	5286.415527	3869.611572	67.657249
339.379669	896.982422	5194.354980	3811.506836	67.821075
339.746796	903.669678	5091.520020	3750.207031	67.971321
340.113953	911.174316	5016.622559	3712.981201	68.246063
340.481018	920.908020	4996.560547	3704.362061	68.294685
340.848114	920.685059	4999.978516	3712.312500	68.434090
341.215118	908.945129	5054.888672	3747.383545	68.463028
341.582153	901.143372	5189.971191	3854.304932	68.857086
341.949066	897.948425	5395.046387	3992.359619	68.809067
342.316010	901.663574	5656.592285	4172.617676	68.790810
342.682922	907.459167	5954.248535	4333.929199	67.894051
343.049835	911.991516	6315.508301	4542.942871	67.196083
343.416656	922.171082	6640.434082	4689.913086	65.889618
343.783478	920.016296	6877.683105	4776.476074	64.731041
344.150269	921.725281	7011.873535	4744.674316	62.772675
344.516998	909.762512	7046.350098	4646.520020	60.893089
344.883728	908.202148	6956.294922	4495.834473	59.318409
345.250427	896.833801	6822.847656	4377.024902	58.727356
345.617065	898.171204	6636.718750	4284.295410	59.006645
345.983704	901.886414	6481.797363	4251.601563	60.031693
346.350281	911.917236	6311.273438	4271.886719	62.229073
346.716827	908.202148	6173.515625	4313.050293	64.665627
347.083405	903.000977	6074.321777	4355.105469	66.754791
347.449860	907.384766	6012.130371	4358.895020	67.613754
347.816376	913.031799	5989.468750	4393.668457	68.564560
348.182770	910.877014	6000.613281	4408.975098	68.728477
348.549194	907.533386	6034.644043	4457.643066	69.241913
348.915558	908.573547	6122.023926	4483.352051	68.568382
349.281921	903.298157	6216.982910	4543.982910	68.515259
349.648193	899.657410	6265.726074	4574.521484	68.483353
350.014526	896.759583	6291.137207	4608.774902	68.812675
350.380737	906.344666	6324.499512	4616.353516	68.473656
350.746948	903.669678	6398.652832	4648.675293	68.153175
351.113159	902.703796	6453.265625	4688.278809	68.201653
351.479309	903.372498	6514.119629	4751.287598	68.581154
351.845428	902.332275	6626.911621	4848.401367	68.932037
352.211517	903.075256	6792.382813	4945.439941	68.639046
352.577576	901.886414	6945.149902	5049.092773	68.625282
352.943604	905.527283	7079.488281	5143.828613	68.648010
353.309601	908.945251	7215.908691	5274.304199	69.214905
353.675537	914.592102	7386.730469	5408.717773	69.438034
354.041473	913.626221	7595.224609	5523.960938	69.000481
354.407379	905.824402	7738.703125	5608.146484	68.819046
354.773254	895.719238	7922.973145	5685.569824	68.161057
355.139038	892.672852	8086.438965	5752.590332	67.557343
355.504913	900.623291	8357.570313	5839.079590	66.226242
355.870636	899.583008	8640.663086	5935.672363	65.056679
356.236389	904.115540	8947.754883	6040.142578	63.852028
356.602081	901.737793	9233.822266	6134.209473	62.799076
356.967804	904.932861	9439.195313	6175.001953	61.751900
357.333405	905.601563	9567.739258	6207.769531	61.210850
357.699036	908.127869	9601.249023	6241.576660	61.352520
358.064606	907.682068	9555.180664	6318.033691	62.565506
358.430176	911.843018	9467.282227	6408.237793	64.244446
358.795654	905.230042	9493.584961	6558.701172	65.827179
359.161163	907.161926	9689.297852	6794.537598	67.038086
359.526581	892.598633	10130.209961	7168.949219	67.943436
359.892029	894.307556	10713.413086	7641.439941	68.714325
360.257416	896.165039	11358.062500	8127.751953	69.123093
360.622772	906.567444	11898.762695	8506.843750	69.142479
360.988098	904.561340	12227.254883	8747.139648	69.264244
361.353394	902.926697	12358.549805	8826.048828	69.163605
361.718658	901.960754	12152.878906	8702.259766	69.330330
362.083893	907.607666	11691.534180	8346.721680	68.983353
362.449097	911.545837	10964.257813	7834.701172	68.868530
362.814209	903.372498	10224.425781	7265.171387	68.251930
363.179382	903.000977	9558.079102	6715.033691	67.151711
363.544434	906.641846	9102.604492	6242.988770	65.109451
363.909546	916.004089	8818.692383	5880.466309	62.819920
364.274536	914.072083	8631.003906	5627.613770	61.080513
364.639587	902.852478	8471.699219	5438.662109	59.927353
365.004517	900.103210	8370.499023	5339.616699	59.428089
365.369507	898.840027	8314.102539	5315.096680	59.556309
365.734344	899.360168	8296.865234	5370.526367	60.441544
366.099274	898.171326	8259.936523	5453.448242	61.877510
366.464081	903.223877	8226.500000	5540.233887	63.318787
366.828918	899.731628	8176.419434	5609.707031	64.726913
367.193665	902.555176	8110.142090	5639.725098	65.724770
367.558411	896.462341	8027.740723	5670.486328	66.944855
367.923126	905.452942	7920.596191	5677.842285	68.029816
368.287781	903.446777	7855.729004	5707.266113	69.097015
368.652435	908.202148	7787.519531	5714.324707	69.863365
369.017059	910.579895	7809.066406	5722.424316	69.752174
369.381653	915.186707	7831.209473	5762.101563	70.082405
369.746185	914.666504	7922.156250	5806.832031	69.813377
370.110687	911.174255	8001.288574	5886.112793	70.167252
370.475220	912.808899	8131.838379	5950.162109	69.778816
370.839661	907.979248	8194.030273	5989.394043	69.741692
371.204041	904.784241	8245.745117	6004.031250	69.462936
371.568451	910.579834	8239.280273	5969.777344	69.032669
371.932770	913.997742	8242.698242	5932.254395	68.474030
372.297150	908.945129	8200.642578	5851.116699	67.778069
372.661377	898.840027	8212.976563	5791.005371	66.886436
373.025696	900.474670	8240.394531	5751.922363	66.096741
373.389862	909.019531	8314.548828	5780.380371	65.780052
373.754059	909.242371	8405.717773	5862.039063	66.068336
374.118225	910.356934	8545.036133	5974.013184	66.324417
374.482361	912.957520	8731.312500	6158.655762	67.094658
374.846436	917.638489	8981.860352	6373.315918	67.652870
375.210510	913.774841	9305.895508	6696.384277	68.905220
375.574524	914.072021	9663.960938	7003.997559	69.600037
375.938538	909.316711	10009.468750	7300.167969	70.227959
376.302460	909.688293	10289.144531	7505.764160	70.324715
376.666412	909.762512	10462.195313	7627.843750	70.328484
377.030304	910.728516	10455.805664	7645.007324	70.552376
377.394196	917.118591	10307.348633	7537.714844	70.505150
377.757996	912.214539	10042.236328	7351.883301	70.532898
378.121796	909.539612	9728.901367	7119.835938	70.416626
378.485565	903.446777	9407.467773	6905.546387	70.579544
378.849304	899.434509	9169.698242	6739.479980	70.614983
379.212982	898.765808	9020.275391	6637.462402	70.660469
379.576630	901.291992	8960.461914	6556.175293	70.167068
379.940277	914.889404	8925.539063	6505.425781	69.788803
380.303864	916.969910	8904.289063	6463.147949	69.437294
380.667450	922.319641	8917.737305	6492.720215	69.669914
381.030945	908.796570	8943.373047	6523.481934	69.881538
381.394501	914.666504	8976.139648	6592.880371	70.436432
381.757935	908.425049	9012.994141	6658.267090	70.945679
382.121399	916.524109	9084.101563	6765.114746	71.607407
382.484741	919.644836	9265.327148	6915.725098	71.846489
382.848145	919.867676	9479.764648	7034.759277	71.436516
383.211487	914.220703	9641.743164	7126.076660	71.175476
383.574768	902.778015	9722.882813	7168.132324	71.034927
383.938019	900.920593	9742.944336	7191.017090	71.138657
384.301270	898.245605	9765.383789	7226.236816	71.364525
384.664459	900.326172	9798.374023	7233.740723	71.177574
385.027649	903.372559	9821.555664	7258.781250	71.263489
385.390778	918.233093	9963.325195	7321.492676	70.792648
385.753876	924.623047	10054.198242	7406.792969	71.001877
386.116943	924.325867	10170.110352	7484.142090	70.949272
386.479980	912.140198	10196.563477	7496.847656	70.922096
386.842987	906.790466	10222.048828	7486.519531	70.633881
387.205994	902.406555	10218.853516	7461.033203	70.398361
387.568909	906.938965	10188.240234	7429.157715	70.272682
387.931793	903.595398	10112.897461	7380.414551	70.329102
388.294678	900.400391	10063.634766	7378.334473	70.694839
388.657471	892.672913	10054.420898	7400.921875	71.037201
389.020294	893.936035	10144.327148	7477.974609	71.175789
389.383057	900.920410	10358.467773	7631.261230	71.163704
389.745819	905.527283	10599.506836	7789.600098	71.013901
390.108521	905.304382	10881.559570	7977.066406	70.885941
390.471191	902.778076	11170.746094	8181.843750	70.891006
390.833801	903.595398	11414.309570	8382.684570	71.156815
391.196442	905.081482	11597.911133	8542.211914	71.422913
391.558960	905.007141	11625.031250	8559.375977	71.402527
391.921509	905.452942	11605.266602	8525.047852	71.212410
392.284027	906.493164	11523.237305	8439.526367	70.954269
392.646484	903.595398	11487.573242	8385.506836	70.690926
393.008911	901.960754	11468.847656	8343.229492	70.420631
393.371307	896.759521	11499.089844	8365.965820	70.448723
393.733673	894.381836	11443.807617	8330.597656	70.489296
394.096008	895.199158	11329.827148	8298.944336	70.953606
394.458344	902.480774	11156.106445	8207.329102	71.241608
394.820587	901.514893	10937.360352	8052.333984	71.252785
395.182831	905.452942	10695.801758	7868.286621	71.119362
395.545013	894.976318	10438.417969	7670.121094	70.992676
395.907196	904.709961	10234.234375	7568.103516	71.422653
396.269287	911.694397	10138.754883	7504.128906	71.446747
396.631409	929.452698	10096.476563	7466.457031	71.309998
396.993469	927.372253	10081.988281	7447.213379	71.219170
397.355530	922.914063	10080.798828	7440.005371	71.163719
397.717499	914.443542	10130.358398	7442.085938	70.830109
398.079468	911.397156	10162.382813	7455.609375	70.740707
398.441376	905.155762	10168.847656	7453.528809	70.688591
398.803284	896.982422	10109.925781	7426.482910	70.873123
399.165131	896.313721	10073.666016	7397.504395	70.839500
399.526978	897.131042	10032.799805	7352.328125	70.659271
399.888763	899.211487	10029.381836	7364.142578	70.808441
400.250519	904.932861	10026.854492	7365.777344	70.827667
400.612244	905.007141	10065.937500	7406.197754	70.966484
400.973938	904.709961	10151.386719	7467.200684	70.971344
401.335602	898.468506	10269.824219	7565.875000	71.146660
401.697205	897.279602	10439.161133	7706.455566	71.360931
402.058807	902.257996	10628.335938	7843.097656	71.363190
402.420349	907.756348	10914.327148	8027.740723	71.153091
402.781860	910.951355	11184.492188	8194.847656	70.899574
403.143341	910.802734	11437.492188	8371.836914	70.877312
403.504822	919.570496	11625.700195	8514.125977	70.936516
403.866241	921.502441	11776.015625	8615.400391	70.882011
404.227631	917.861572	11894.602539	8666.075195	70.587563
404.588959	906.939026	11911.247070	8637.988281	70.254753
404.950287	905.081360	11856.633789	8579.586914	70.076874
405.311554	904.115540	11710.628906	8468.727539	70.000481
405.672821	900.771912	11618.641602	8406.015625	70.025513
406.034027	897.279602	11470.481445	8319.452148	70.197960
406.395203	902.480774	11304.565430	8238.090820	70.520569
406.756348	905.601563	11147.860352	8151.008301	70.740318
407.117493	903.446777	11087.601563	8141.349121	71.070236
407.478516	904.487000	11115.835938	8176.197266	71.212051
407.839600	909.465332	11181.519531	8197.670898	70.951782
408.200592	912.437317	11322.992188	8218.624023	70.180573
408.561554	907.013367	11488.315430	8251.465820	69.409729
408.922485	903.223877	11661.515625	8284.307617	68.608322
409.283417	907.310547	11770.963867	8318.858398	68.223343
409.644257	911.025635	11888.510742	8361.731445	67.872612
410.005096	903.669678	11944.385742	8429.940430	68.168320
410.365906	902.703674	11925.585938	8462.485352	68.582626
410.726715	897.279602	11867.258789	8478.906250	69.112495
411.087433	898.617126	11775.049805	8437.372070	69.312752
411.448120	901.886536	11737.377930	8323.465820	68.493240
411.808807	910.728516	11680.906250	8179.540527	67.490173
412.169434	919.793457	11654.233398	8041.263672	66.342262
412.530029	913.849182	11691.385742	8006.787109	65.812241
412.890564	909.168152	11802.168945	8030.341309	65.373840
413.251099	909.985535	11977.598633	8145.361816	65.374313
413.611572	915.335205	12169.671875	8315.960938	65.757996
413.972076	912.660339	12349.038086	8538.942383	66.684418
414.332489	908.053528	12471.637695	8773.368164	68.017967
414.692871	904.041260	12673.815430	9059.507813	69.291618
415.053223	903.075378	12847.312500	9227.803711	69.696609
415.413574	904.561340	13165.847656	9375.219727	69.084579
415.773834	904.932922	13420.112305	9368.458008	67.626083
416.134094	906.493225	13765.174805	9352.928711	65.686638
416.494263	907.161926	14103.622070	9265.325195	63.336403
416.854462	904.264160	14541.117188	9255.369141	61.239239
417.214630	901.663513	15044.890625	9305.821289	59.421783
417.574738	896.165100	15490.409180	9472.854492	58.767616
417.934784	900.920593	16005.102539	9769.692383	58.717327
418.294861	909.168152	16578.572266	10274.655273	59.769260
418.654846	912.140198	17272.189453	10850.203125	60.745922
419.014832	906.270325	17992.777344	11425.827148	61.566452
419.374756	901.514954	18765.228516	11928.632813	61.729149
419.734680	900.623291	19533.814453	12331.725586	61.348064
420.094543	898.840027	20145.251953	12505.000000	60.302982
420.454376	905.452942	20501.681641	12380.988281	58.559917
420.814148	903.075256	20688.033203	12101.238281	56.599380
421.173920	906.641785	20836.638672	11803.656250	54.676453
421.533691	903.966980	20935.757813	11535.793945	53.074772
421.893341	908.796570	20984.427734	11305.084961	51.785610
422.253021	910.505554	20956.712891	11176.911133	51.213703
422.612640	913.774902	20936.279297	11187.090820	51.308849
422.972260	900.251770	20962.283203	11294.905273	51.812565
423.331757	898.691406	21060.884766	11365.418945	51.912643
423.691315	897.279724	21176.943359	11332.354492	51.455860
424.050781	908.573730	21184.150391	11026.671875	49.902885
424.410248	919.273254	20979.226563	10533.600586	47.927963
424.769653	914.889404	20678.001953	9931.375977	45.622803
425.128998	911.917297	20260.048828	9369.499023	43.712658
425.488373	902.406555	19725.439453	8877.391602	42.368225
425.847656	899.657410	19234.375000	8521.852539	41.572475
426.206940	907.310547	18759.431641	8307.267578	41.451416
426.566193	904.338379	18339.917969	8167.577637	41.657570
426.925385	902.332214	17826.560547	7975.876953	41.795376
427.284576	894.679138	17338.837891	7693.452637	41.344612
427.643677	896.610901	16936.041016	7321.419434	40.056339
428.002777	896.388000	16666.322266	6901.013672	38.076412
428.361847	907.533386	16438.363281	6447.099121	35.668190
428.720856	905.007141	16208.840820	5998.235840	33.280735
429.079865	910.059753	16068.112305	5622.486816	31.088606
429.438812	901.440613	16055.332031	5393.114258	29.640398
429.797760	908.350769	16085.053711	5297.709473	28.921690
430.156616	917.490051	16010.377930	5304.396973	29.066053
430.515503	917.267151	15858.875977	5354.773926	29.698990
430.874268	918.604553	15823.061523	5413.324707	30.156887
431.233093	908.647949	15912.819336	5405.300293	29.969347
431.591827	905.155762	16130.971680	5333.449707	29.084114
431.950562	903.223877	16342.510742	5156.683105	27.549582
432.309204	908.573669	16499.216797	4936.599121	25.836172
432.667877	919.496094	16691.212891	4708.191895	24.022089
433.026459	919.347595	16737.876953	4493.605957	22.595390
433.385010	915.260925	16829.416016	4355.625488	21.618267
433.743561	913.180481	16805.716797	4265.273438	21.092247
434.102051	910.654236	16833.951172	4242.016113	20.921307
434.460510	911.174316	16836.476563	4227.676270	20.825361
434.818939	907.756348	16812.253906	4160.283691	20.450361
435.177338	905.973083	16775.845703	4029.956787	19.684994
435.535675	907.236267	16759.052734	3809.872070	18.311060
435.894012	909.985352	16763.064453	3558.654541	16.707602
436.252289	914.369324	17013.984375	3310.854736	14.885358
436.610535	913.551941	17120.312500	3066.844727	13.286386
436.968719	909.242371	17497.326172	2906.573486	12.040758
437.326935	902.778076	17768.900391	2816.741455	11.347975
437.685028	903.372498	18109.357422	2838.438232	11.246469
438.043152	906.121765	18322.009766	2943.130859	11.696268
438.401215	908.350769	18600.423828	3132.008545	12.568667
438.759277	906.716125	19026.400391	3339.164063	13.424340
439.117249	906.344543	19613.095703	3532.648438	14.039337
439.475250	911.322815	20152.160156	3649.006592	14.228506
439.833130	913.106140	20649.468750	3706.219482	14.152118
440.191071	912.363098	20818.583984	3615.496094	13.579338
440.548889	914.220703	20906.185547	3451.064209	12.689316
440.906708	907.459167	20772.439453	3211.809570	11.600063
441.264496	903.075256	20554.732422	2966.684570	10.500944
441.622223	897.576904	20219.626953	2712.866699	9.394913
441.979950	908.722351	19911.865234	2481.264893	8.275170
442.337616	912.437439	19695.421875	2295.508301	7.363424
442.695251	906.344543	19433.281250	2163.323730	6.784604
443.052887	902.629456	19305.705078	2097.120117	6.490712
443.410461	905.452942	19375.326172	2084.711182	6.384767
443.768005	908.499451	19654.333984	2100.314941	6.357761
444.125458	905.973145	19951.990234	2120.376709	6.376155
444.482941	902.034973	20350.994141	2136.649170	6.347971
444.840393	901.069092	20926.025391	2154.407471	6.258882
445.197754	904.115540	21447.480469	2180.264893	6.211978
445.555084	904.932861	21906.748047	2214.518311	6.235582
445.912415	910.356934	22149.568359	2256.573486	6.338355
446.269714	913.923523	22328.787109	2316.535645	6.549713
446.626953	918.827454	22299.361328	2391.804443	6.889338
446.984161	926.109070	22093.320313	2467.444580	7.281713
447.341309	922.765442	21838.611328	2543.307861	7.747918
447.698456	916.449707	21480.248047	2595.765625	8.166370
448.055542	908.870911	21256.595703	2637.077881	8.493367
448.412598	906.567566	20871.783203	2623.629150	8.600266
448.769653	908.573730	20497.814453	2564.632813	8.453922
449.126617	909.465332	19957.859375	2466.850342	8.175939
449.483582	912.585999	19600.687500	2360.820557	7.749501
449.840515	907.236267	19240.095703	2250.034912	7.324545
450.197388	900.326172	19037.769531	2139.992676	6.834847
450.554230	889.700867	18898.005859	2048.228760	6.433298
450.911041	903.298279	18861.671875	1990.792847	6.055641
451.267822	906.790466	18932.037109	1965.901367	5.875708
451.624573	916.226807	18984.568359	1947.846069	5.709540
451.981262	910.579773	18946.451172	1935.585938	5.683153
452.337921	918.827393	18766.638672	1928.452759	5.656858
452.694580	913.626282	18382.492188	1931.647827	5.827634
453.051147	910.059753	18142.865234	1938.706665	5.969121
453.407715	911.025635	17726.994141	1946.434204	6.157294
453.764221	909.019531	17586.710938	1949.852051	6.240867
454.120728	908.425049	17208.363281	1950.000610	6.390058
454.477142	902.109375	17166.232422	1958.248169	6.493672
454.833557	899.583008	17071.794922	1968.724976	6.610981
455.189911	901.217712	17103.296875	1980.167480	6.659329
455.546265	899.657410	17183.693359	1987.969238	6.683305
455.902557	902.852356	17209.548828	2008.922485	6.782919
456.258820	897.279602	17508.396484	2033.813965	6.842011
456.615051	899.360168	17807.687500	2065.764160	6.898400
456.971252	904.932861	18248.599609	2092.884521	6.849484
457.327393	909.093811	18852.755859	2139.769775	6.858555
457.683502	905.378662	19586.791016	2185.168701	6.850606
458.039612	907.756348	20663.736328	2255.756348	6.823250
458.395630	912.883301	21719.798828	2331.173584	6.816437
458.751648	917.787292	22642.195313	2402.875732	6.836036
459.107605	913.923523	23388.712891	2453.401611	6.849800
459.463562	915.038086	23618.087891	2449.092041	6.757039
459.819458	911.471497	23473.939453	2414.169678	6.660168
460.175323	913.923523	22740.646484	2333.848389	6.505442
460.531158	908.425110	21873.828125	2248.474609	6.391719
460.886932	906.790344	20979.150391	2156.636475	6.226703
461.242676	905.378601	20209.001953	2076.760986	6.068199
461.598419	908.276367	19646.382813	2023.932007	5.953940
461.954102	909.390930	19076.554688	2002.607056	6.017539
462.309723	903.075256	18633.265625	1994.062134	6.153272
462.665344	897.799805	18253.800781	1990.272827	6.294497
463.020905	902.257996	18060.763672	1978.086914	6.269945
463.376373	910.728455	18054.076172	1973.108765	6.197042
463.731873	920.536377	18048.947266	1953.195679	6.028927
464.087341	912.288818	18129.716797	1935.437378	5.942517
464.442749	909.911133	18253.798828	1925.629395	5.856348
464.798126	905.304382	18389.033203	1930.607788	5.864330
465.153503	900.994812	18539.273438	1937.294922	5.875290
465.508820	900.400391	18692.931641	1930.830444	5.791363
465.864105	895.719299	18824.669922	1914.038086	5.679746
466.219330	906.195984	19089.855469	1914.855469	5.547065
466.574524	901.589172	19122.400391	1899.251587	5.475401
466.929657	904.115540	18981.298828	1875.474976	5.373400
467.284790	913.477722	18761.806641	1832.379395	5.148391
467.639893	915.112305	18473.810547	1802.138184	5.051775
467.994934	912.734619	18321.044922	1791.810059	5.049746
468.349945	899.657410	18097.169922	1773.457397	5.080967
468.704926	896.610901	17942.546875	1762.534790	5.079944
469.059875	899.805908	17775.662109	1744.404907	5.004777
469.414764	901.589172	17649.943359	1742.473145	5.020696
469.769653	907.533386	17653.435547	1737.866333	4.958425
470.124451	908.276428	17728.257813	1742.250122	4.958232
470.479248	903.075256	17802.634766	1740.912720	4.957747
470.834015	900.920471	17874.263672	1751.909546	5.013680
471.188721	902.406555	18090.707031	1776.280640	5.084121
471.543365	908.202148	18396.908203	1817.741699	5.200725
471.898010	905.155701	18631.779297	1870.125366	5.443618
472.252625	900.400391	18924.087891	1919.536621	5.654427
472.607178	894.902039	19191.947266	1963.672241	5.841218
472.961700	894.530457	19345.160156	1991.907227	5.947639
473.316193	898.171326	19383.351563	2013.009399	6.030983
473.670654	903.149597	19289.431641	2017.021851	6.058171
474.025055	913.997742	19397.617188	2019.027832	5.978429
474.379456	914.294983	19466.644531	2017.318848	5.945467
474.733795	918.381653	19640.884766	2027.349609	5.923182
475.088104	910.951355	19913.056641	2049.640381	5.992436
475.442383	902.852356	20287.244141	2075.126465	6.047515
475.796570	896.462219	20675.548828	2098.011719	6.074849
476.150787	897.056702	21149.154297	2121.416992	6.045598
476.504944	907.756348	21589.398438	2131.596680	5.917520
476.859070	911.322815	22006.906250	2137.020508	5.810210
477.213135	916.226868	22249.728516	2117.776123	5.632218
477.567200	909.613953	22540.474609	2094.965088	5.479907
477.921173	907.384949	22776.681641	2074.085938	5.334881
478.275146	902.926697	22999.884766	2067.844727	5.271847
478.629089	907.459167	23301.630859	2083.225342	5.250322
478.983002	910.356934	23778.876953	2108.785400	5.240516
479.336823	911.248596	24470.189453	2143.781982	5.231701
479.690643	913.477600	25256.609375	2205.824951	5.308879
480.044403	902.703796	26280.576172	2277.898682	5.418873
480.398163	900.177429	27603.609375	2365.873047	5.488791
480.751862	898.691406	29446.759766	2470.342773	5.505281
481.105499	908.870911	31887.828125	2628.384521	5.550586
481.459137	913.923523	35504.214844	2847.280273	5.589304
481.812744	913.106140	40200.964844	3142.782227	5.675229
482.166290	909.019531	45694.015625	3501.589844	5.788926
482.519806	905.304382	50753.667969	3912.558350	6.032804
482.873291	898.394226	54665.109375	4292.913574	6.313421
483.226715	897.131042	57032.542969	4560.032227	6.525117
483.580139	905.527283	57867.703125	4656.551270	6.585114
483.933502	912.214539	57342.605469	4565.679199	6.474286
484.286804	922.988464	55630.152344	4340.096191	6.246180
484.640106	917.118469	53042.855469	4013.312500	5.939857
484.993347	913.329102	50227.300781	3688.907227	5.628381
485.346558	905.007141	48023.406250	3415.919189	5.328942
485.699738	902.852356	47031.468750	3262.707031	5.115815
486.052887	900.623291	47336.781250	3207.277100	4.967366
486.405975	904.115540	48345.140625	3231.276611	4.905377
486.759064	910.728333	49482.792969	3265.827393	4.848670
487.112061	913.254700	49975.562500	3291.759033	4.847926
487.464996	918.753113	49638.972656	3278.830811	4.844144
487.817963	919.644775	48438.167969	3221.246094	4.843587
488.170868	917.638611	46557.785156	3120.045654	4.825591
488.523743	904.487000	44306.121094	3011.489502	4.854661
488.876587	894.679138	42227.058594	2914.375732	4.886476
489.229401	898.840027	40863.453125	2873.583252	4.941229
489.582153	907.830627	40570.402344	2902.264404	5.028504
489.934845	911.917297	41173.445313	3021.074219	5.238641
490.287537	905.378662	42452.121094	3176.292725	5.465926
490.640198	901.217712	43847.894531	3333.071533	5.662496
490.992798	898.394226	44662.996094	3444.079834	5.816769
491.345337	909.911133	44533.113281	3484.054688	5.900859
491.697876	916.449768	43216.390625	3430.184814	5.942645
492.050354	919.421875	41067.707031	3302.533203	5.935774
492.402832	910.134033	38196.054688	3105.482422	5.887875
492.755219	910.208313	35118.214844	2873.063232	5.737998
493.107605	911.471497	32351.179688	2665.833008	5.580082
493.459930	915.632507	30268.548828	2516.855957	5.455074
493.812225	906.716064	28868.240234	2442.627686	5.492947
494.164490	910.505554	28053.140625	2402.429688	5.496607
494.516724	902.480896	27590.828125	2411.717773	5.655040
494.868896	904.784363	27564.750000	2425.835205	5.705374
495.221039	902.629456	27769.750000	2447.605713	5.750435
495.573120	917.861511	28077.291016	2442.404541	5.613310
495.925201	917.341370	28358.601563	2445.748291	5.569741
496.277222	915.260925	28533.134766	2428.287109	5.478431
496.629211	906.790466	28556.392578	2392.770752	5.374328
496.981140	913.923523	28431.490234	2338.381104	5.176539
497.333069	909.391113	28123.505859	2290.604248	5.075356
497.684967	908.870911	27697.083984	2242.827637	4.979641
498.036804	905.007141	27143.228516	2210.580322	4.975845
498.388580	907.087646	26626.306641	2180.784668	4.952316
498.740326	906.493164	26100.912109	2168.004639	5.007107
499.092072	902.183594	25637.263672	2145.565430	5.026795
499.443756	906.121643	25145.156250	2131.299072	5.054564
499.795410	907.310547	24776.615234	2115.992920	5.063752
500.147003	914.517822	24410.226563	2112.277588	5.097781
500.498566	907.682068	24079.208984	2104.253174	5.163971
500.850098	907.979187	23892.859375	2106.927979	5.216249
501.201599	900.474670	23732.664063	2118.816406	5.336071
501.553009	898.988586	23670.916016	2143.261963	5.464067
501.904449	905.527344	23618.455078	2174.171875	5.585561
502.255859	917.787292	23658.359375	2196.611328	5.623535
502.607178	925.886230	23784.228516	2216.747314	5.647221
502.958405	920.610657	23890.554688	2222.320068	5.667012
503.309692	905.378662	24019.916016	2223.360107	5.701959
503.660919	898.840027	24123.865234	2211.620361	5.652439
504.012115	894.381836	24096.521484	2195.719727	5.608697
504.363251	895.422119	24032.250000	2168.747803	5.503458
504.714294	899.657410	23847.162109	2152.549805	5.459820
505.065369	903.075195	23755.250000	2133.082275	5.382451
505.416443	912.585999	23578.109375	2128.327148	5.363835
505.767395	916.078186	23620.388672	2123.423096	5.317690
506.118317	913.923523	23612.662109	2130.853516	5.361223
506.469238	907.236145	23800.796875	2146.605469	5.413616
506.820160	899.360107	23960.177734	2160.425781	5.468434
507.170929	902.629395	24200.468750	2183.311279	5.496998
507.521729	903.743958	24417.210938	2183.682861	5.443429
507.872498	914.815125	24623.328125	2177.664063	5.326563
508.223236	911.768738	24949.218750	2161.391846	5.198651
508.573883	910.134033	25235.876953	2156.339111	5.122989
508.924500	904.709961	25526.031250	2156.041992	5.082311
509.275116	907.459167	25710.302734	2159.162598	5.046612
509.625702	907.236145	25945.617188	2183.757080	5.098257
509.976196	903.149597	26121.195313	2200.995117	5.146495
510.326660	906.716064	26364.388672	2239.186768	5.234064
510.677124	914.517883	26542.119141	2261.477539	5.255895
511.027557	919.941956	26751.283203	2309.105469	5.377822
511.377869	913.923523	26886.367188	2330.281982	5.453312
511.728180	909.836853	26896.173828	2335.111572	5.484708
512.078430	910.208313	26807.603516	2306.504883	5.391649
512.428650	915.409607	26658.333984	2266.158691	5.247069
512.778931	914.072083	26496.427734	2220.239502	5.105736
513.129028	904.338440	26342.841797	2185.688721	5.037051
513.479126	899.508789	26185.318359	2158.717041	4.979901
513.829285	896.908203	26109.826172	2143.187744	4.943020
514.179382	900.994812	26023.041016	2132.562256	4.902337
514.529297	904.189758	26025.791016	2140.735596	4.922242
514.879272	901.366272	26178.333984	2164.735596	4.998105
515.229187	898.468567	26339.421875	2199.211914	5.112793
515.579163	898.617126	26778.552734	2233.465576	5.157851
515.928955	902.629456	27322.521484	2275.372314	5.195868
516.278748	901.886414	28171.353516	2321.142578	5.204561
516.628540	901.960754	29053.181641	2364.015381	5.193575
516.978333	903.000977	30042.523438	2405.104736	5.154867
517.327942	908.722351	31016.482422	2430.293457	5.053751
517.677612	912.288879	31861.453125	2440.770264	4.938684
518.027222	915.781067	32401.705078	2438.763916	4.837028
518.376831	913.700623	32546.968750	2408.745605	4.726179
518.726379	905.378723	32277.992188	2373.005859	4.678052
519.075867	899.805969	31633.490234	2320.696777	4.623237
519.425293	898.542786	30877.609375	2284.288330	4.622377
519.774658	899.360168	30085.396484	2253.676025	4.640287
520.124084	902.406555	29435.619141	2227.818359	4.645154
520.473389	900.771912	28835.250000	2200.995361	4.654547
520.822693	900.103210	28396.937500	2178.184326	4.648103
521.171997	900.920471	28135.765625	2173.131836	4.671264
521.521240	912.065918	28121.945313	2177.366943	4.650153
521.870361	908.350769	28249.001953	2193.713623	4.701288
522.219482	910.505554	28515.154297	2217.936279	4.736270
522.568604	901.663574	28784.875000	2259.397217	4.869359
522.917664	906.195984	29237.898438	2318.542236	4.985038
523.266724	901.663513	29905.138672	2387.123779	5.121663
523.615662	902.257996	30900.937500	2486.169189	5.279936
523.964600	897.502502	32145.509766	2591.010010	5.419569
524.313538	903.075256	33589.582031	2686.563477	5.456344
524.662354	906.641785	35099.117188	2765.175781	5.435505
525.011169	912.808899	36509.011719	2832.345459	5.392532
525.359985	907.904968	37858.128906	2888.369873	5.359818
525.708740	907.384827	39323.675781	2929.979248	5.264940
526.057434	910.877136	41142.308594	2965.347412	5.106630
526.406067	916.524109	43450.527344	3058.894531	5.036841
526.754700	917.564270	46425.972656	3234.100342	5.090347
527.103333	905.750183	49848.511719	3481.008057	5.261775
527.451782	895.422058	53146.656250	3769.525391	5.500546
527.800293	894.530457	55516.542969	4013.981689	5.710978
528.148743	905.378601	56710.437500	4190.747559	5.887224
528.497131	911.991516	56669.937500	4233.323730	5.956698
528.845642	910.505554	55491.347656	4149.955566	5.935141
529.193909	908.350769	53255.207031	3966.279053	5.841666
529.542175	900.474670	50021.636719	3722.863281	5.745770
529.890503	900.103210	46391.574219	3451.361328	5.608212
530.238770	895.942200	42987.621094	3206.533936	5.489427
530.586914	897.056702	40609.785156	3025.384033	5.359308
530.934998	903.149597	39383.117188	2925.075439	5.254489
531.283142	907.087646	39393.000000	2914.375732	5.215643
531.631226	911.248596	40143.460938	2968.468018	5.243700
531.979248	905.081482	41481.578125	3085.197510	5.372854
532.327148	902.703796	42750.664063	3207.722656	5.508079
532.675110	905.898743	43736.734375	3293.096436	5.573549
533.023071	908.127869	43967.074219	3335.375000	5.637033
533.370850	911.545715	43194.328125	3307.362549	5.666176
533.718689	910.877014	41793.871094	3250.149658	5.721872
534.066467	913.031799	39953.839844	3148.577881	5.726178
534.414246	912.660339	38280.464844	3043.959717	5.703571
534.761963	913.551941	36918.347656	2946.251709	5.645636
535.109619	911.991516	36158.972656	2880.047607	5.583616
535.457153	911.025635	35831.671875	2824.320557	5.478980
535.804749	907.236145	35770.296875	2772.606201	5.350563
536.152344	910.133972	35667.535156	2722.005859	5.212909
536.499817	905.230042	35413.566406	2692.953369	5.180555
536.847229	910.951355	34882.226563	2641.907471	5.095352
537.194641	900.623291	34044.242188	2579.567627	5.065664
537.542114	904.115417	33083.656250	2529.487549	5.050949
537.889404	897.279602	32201.015625	2517.524658	5.175884
538.236694	904.561279	31735.583984	2535.506104	5.289947
538.583984	913.254822	31918.962891	2564.484131	5.325565
538.931213	916.449768	32846.335938	2613.969727	5.316399
539.278381	915.706726	34513.613281	2709.448730	5.338850
539.625488	912.511719	36711.785156	2826.995361	5.347828
539.972595	913.254700	39465.371094	2973.223389	5.343335
540.319641	917.564270	42101.039063	3098.126221	5.294750
540.666687	910.505554	44230.699219	3175.921143	5.229467
541.013611	908.202148	45360.324219	3224.366455	5.210470
541.360596	903.000977	45512.343750	3208.688721	5.168621
541.707458	902.109375	44678.519531	3163.289795	5.165294
542.054260	898.691406	43066.824219	3051.464111	5.105212
542.401062	899.062927	41067.562500	2941.941650	5.085773
542.747864	904.338379	38896.878906	2821.942627	5.047318
543.094666	904.041199	36851.398438	2712.420654	5.030632
543.441284	902.703674	34882.152344	2596.582764	4.985011
543.787903	898.914368	33301.066406	2485.426025	4.896316
544.134460	911.248596	31891.392578	2387.643555	4.765617
544.481079	905.007141	30938.312500	2314.158447	4.691962
544.827637	912.883118	30281.181641	2280.053467	4.655259
545.174072	906.567444	29992.884766	2274.926514	4.704477
545.520508	910.728516	29942.435547	2299.371826	4.783195
545.866943	906.790466	29946.001953	2340.981445	4.938808
546.213318	905.973145	29839.005859	2386.306396	5.116412
546.559631	908.425110	29470.242188	2428.584717	5.322350
546.905823	913.477722	28891.275391	2428.881836	5.416452
547.252136	911.100037	28017.994141	2411.345947	5.534554
547.598389	911.768738	27030.509766	2361.785889	5.551635
547.944458	905.229980	25963.822266	2307.619385	5.596441
548.290588	908.276428	24999.001953	2237.626221	5.518098
548.636658	910.431152	24059.369141	2146.308350	5.338808
548.982727	905.304260	23288.775391	2061.380127	5.164865
549.328735	902.332214	22710.255859	1982.173462	4.951601
549.674622	900.474609	22299.955078	1926.817993	4.796113
550.020569	912.214539	22022.435547	1895.759644	4.659094
550.366455	918.381653	21778.201172	1883.128296	4.624904
550.712280	917.712891	21684.357422	1886.917603	4.667122
551.058044	913.180420	21709.841797	1891.895996	4.706119
551.403748	905.601563	21851.390625	1895.536621	4.726177
551.749512	902.778137	22084.849609	1911.065918	4.760100
552.095154	902.406555	22244.525391	1929.121460	4.810745
552.440735	905.750183	22329.156250	1955.127441	4.898274
552.786316	906.716125	22219.634766	1955.870605	4.922623
553.131897	903.595398	22012.255859	1951.263794	4.963216
553.477417	904.635559	21679.900391	1930.682007	4.938788
553.822815	906.493164	21279.630859	1922.508667	4.987035
554.168213	905.155701	20865.615234	1903.412720	5.001173
554.513672	898.468506	20469.361328	1898.731812	5.110974
554.859009	897.502625	20189.314453	1884.317017	5.115198
555.204285	900.994873	19979.705078	1884.911499	5.157144
555.549500	899.360107	19825.302734	1868.044556	5.118289
555.894714	900.846191	19685.763672	1848.651733	5.045567
556.239990	893.861755	19515.087891	1827.475220	5.013706
556.585022	907.756348	19409.876953	1824.726196	4.956026
556.930115	907.310547	19242.544922	1820.416626	4.980062
557.275146	910.728455	19155.687500	1799.611816	4.871940
557.620178	902.406555	19056.642578	1784.825562	4.860678
557.965149	903.223877	18989.472656	1774.348999	4.816505
558.310059	904.709961	18905.138672	1781.481934	4.870839
558.654968	900.697571	18830.017578	1777.098145	4.888086
558.999756	899.508789	18857.732422	1771.302612	4.854566
559.344604	897.354004	18928.099609	1767.958984	4.828447
559.689331	906.716125	18995.640625	1757.705200	4.704476
560.033997	908.945129	19009.013672	1769.519409	4.754536
560.378723	913.849121	19066.671875	1768.404785	4.707564
560.723389	910.728455	19104.789063	1764.020874	4.689950
561.067932	907.384827	19172.255859	1751.166504	4.619697
561.412476	906.418945	19132.576172	1743.959106	4.595265
561.757019	905.452942	19118.384766	1749.011719	4.631648
562.101501	907.459167	19049.656250	1753.247070	4.661993
562.445862	906.344543	18940.654297	1769.519165	4.786291
562.790222	905.378662	18847.703125	1784.454102	4.899451
563.134644	904.041260	18804.384766	1807.190796	5.045431
563.478943	905.601563	18892.359375	1828.515625	5.131075
563.823181	906.493164	19036.136719	1853.035645	5.220965
564.167358	900.177429	19308.009766	1877.035278	5.306751
564.511536	897.948425	19721.205078	1901.852539	5.333318
564.855774	892.672913	20162.935547	1921.839844	5.340701
565.199768	902.183655	20542.994141	1933.653931	5.251668
565.543823	902.703796	20798.669922	1933.653931	5.181705
565.887817	909.316650	21005.750000	1938.557983	5.121512
566.231812	911.545715	21036.511719	1934.396851	5.082499
566.575745	909.911133	20901.503906	1920.725220	5.056196
566.919617	907.756348	20607.265625	1884.540039	4.958416
567.263428	901.960693	20272.384766	1866.112915	4.977445
567.607239	907.607727	19999.990234	1841.667114	4.892314
567.950989	908.127869	19760.365234	1833.568237	4.908915
568.294678	910.728455	19633.751953	1808.453979	4.794768
568.638367	910.282654	19546.373047	1797.308594	4.759721
568.981995	907.904968	19554.025391	1788.020874	4.720102
569.325623	902.555176	19659.236328	1788.169312	4.721593
569.669128	897.651184	19815.421875	1784.899902	4.690028
570.012573	894.827637	20064.632813	1785.197266	4.644646
570.356140	899.211609	20322.982422	1804.144531	4.658894
570.699524	896.462402	20612.169922	1850.509399	4.839020
571.042908	900.400391	20916.662109	1909.654297	5.042170
571.386230	897.428284	21157.253906	1967.164429	5.280085
571.729492	898.096985	21295.160156	2013.380737	5.467864
572.072815	891.929871	21335.060547	2052.909912	5.679071
572.416016	893.861633	21244.783203	2078.916016	5.823100
572.759094	901.960754	21071.210938	2097.640381	5.928231
573.102234	916.524109	20822.818359	2105.962158	5.975185
573.445374	922.468262	20577.691406	2097.714600	5.979308
573.788391	919.719055	20390.375000	2075.423584	5.935622
574.131409	911.768738	20241.472656	2033.962524	5.805541
574.474365	908.350769	20120.806641	1993.096191	5.646053
574.817261	906.418884	20005.634766	1949.183228	5.459723
575.160156	905.972961	19788.375000	1904.304565	5.287101
575.502930	904.858459	19541.466797	1855.115845	5.098876
575.845703	903.075195	19269.443359	1813.580688	4.957461
576.188477	910.133972	18924.455078	1783.116699	4.846049
576.531250	910.356934	18539.123047	1749.531860	4.760259
576.873901	910.431213	18067.376953	1712.380493	4.674196
577.216431	902.034973	17706.931641	1686.671753	4.669096
577.559082	900.771790	17375.693359	1668.913452	4.662490
577.901611	906.493164	17104.857422	1670.102173	4.714112
578.244080	906.938965	16793.751953	1654.721680	4.706940
578.586487	904.189758	16538.818359	1655.018921	4.802347
578.928955	910.505554	16280.247070	1649.149048	4.805829
579.271301	911.620117	16088.100586	1656.133423	4.905704
579.613647	907.310547	15816.078125	1661.408813	5.058086
579.955872	891.335449	15682.184570	1669.136230	5.258662
580.298157	894.158875	15547.101563	1676.863892	5.341623
580.640320	896.536560	15522.656250	1691.650024	5.436257
580.982483	906.121643	15421.381836	1701.383667	5.478800
581.324524	900.028809	15334.077148	1716.467163	5.656336
581.666626	902.480896	15231.538086	1716.021484	5.677558
582.008728	906.344543	15163.550781	1694.622437	5.528979
582.350647	910.951355	15095.415039	1673.743164	5.377657
582.692566	916.152527	15040.133789	1649.297485	5.190781
583.034424	909.168152	14999.043945	1632.133667	5.131099
583.376343	910.728455	14931.355469	1599.440430	4.912134
583.718201	909.762512	14896.803711	1573.954590	4.748625
584.059937	906.641846	14815.367188	1562.660522	4.716598
584.401611	902.332275	14805.411133	1554.635742	4.691792
584.743347	903.892578	14752.656250	1543.861938	4.621130
585.085022	906.195984	14695.518555	1532.939453	4.545136
585.426514	913.403320	14627.011719	1541.335571	4.578899
585.768127	912.065918	14611.778320	1550.103394	4.657305
586.109619	912.363098	14638.528320	1557.236328	4.698131
586.451172	906.418945	14652.792969	1561.991821	4.769060
586.792542	901.886414	14708.148438	1584.134155	4.941582
587.133850	902.257996	14774.946289	1600.183472	5.030931
587.475220	911.768738	14874.809570	1623.365845	5.096290
587.816589	911.843018	14939.304688	1632.059204	5.134330
588.157776	917.861511	15018.362305	1656.133301	5.235784
588.498962	913.923401	15110.721680	1669.062012	5.319077
588.840210	924.994568	15185.098633	1685.631470	5.334021
589.181335	920.462097	15289.864258	1698.337280	5.413414
589.522400	925.663330	15315.127930	1704.355835	5.411546
589.863403	917.267151	15305.989258	1707.476440	5.491866
590.204407	923.285645	15220.690430	1709.482544	5.498878
590.545410	915.781067	15081.223633	1701.383667	5.545909
590.886353	910.208313	14887.961914	1686.894653	5.556589
591.227112	901.737854	14706.143555	1658.362427	5.481037
591.567932	896.833801	14608.731445	1636.889038	5.397176
591.908752	901.217712	14632.731445	1611.700195	5.174102
592.249512	905.527283	14680.135742	1593.644653	4.995549
592.590149	907.533447	14718.031250	1566.895630	4.774355
592.930786	913.180481	14786.985352	1545.348022	4.556555
593.271423	912.957520	14834.166992	1539.849609	4.503144
593.612000	909.762512	15037.460938	1549.360352	4.527261
593.952576	905.972961	15186.584961	1565.112671	4.615626
594.292969	902.629395	15408.304688	1567.490234	4.583453
594.633484	907.236145	15603.421875	1585.917358	4.618077
594.973877	912.734680	15912.075195	1606.424805	4.624804
595.314209	914.740784	16254.687500	1627.824097	4.648539
595.654480	914.146423	16610.894531	1645.953979	4.662160
595.994812	914.220703	16934.111328	1660.071289	4.655778
596.335022	915.781067	17197.363281	1673.297363	4.652596
596.675171	912.140198	17253.312500	1675.303589	4.670187
597.015320	900.103210	17168.832031	1664.975586	4.701488
597.355408	895.570740	16839.300781	1644.319336	4.696195
597.695496	899.062988	16428.109375	1621.731323	4.653656
598.035461	907.459229	15874.554688	1600.109009	4.627817
598.375366	909.391113	15361.046875	1580.641724	4.644801
598.715271	914.072083	14891.825195	1562.437622	4.638554
599.055176	912.957520	14462.950195	1540.518188	4.631447
599.395081	917.935852	14149.020508	1541.558594	4.713315
599.734802	911.099915	13917.567383	1533.459595	4.785001
600.074524	914.517883	13834.051758	1549.954712	4.918419
600.414246	908.350769	13761.754883	1554.338501	5.025810
600.753906	908.425049	13799.204102	1565.335449	5.095971
601.093506	903.075256	13862.286133	1563.923706	5.099450
601.433044	908.945251	14073.307617	1561.026001	4.953379
601.772583	911.545837	14338.418945	1561.545898	4.841038
602.112122	918.901794	14705.846680	1576.183594	4.767422
602.451538	919.942078	15107.081055	1595.205078	4.759684
602.790894	920.982239	15533.503906	1612.071899	4.729434
603.130310	911.843079	16020.484375	1628.492798	4.743310
603.469604	906.939148	16433.607422	1645.433716	4.756298
603.808838	900.994812	16814.185547	1663.489380	4.791588
604.148010	902.480896	17083.013672	1663.638062	4.704154
604.487305	903.372498	17194.095703	1654.572876	4.611216
604.826416	909.539612	17055.447266	1629.533081	4.459294
605.165527	915.038025	16644.033203	1603.750000	4.378614
605.504456	908.053528	16159.131836	1584.802856	4.437387
605.843445	909.019531	15671.187500	1567.936035	4.463548
606.182434	904.709961	15198.101563	1554.561523	4.546517
606.521423	916.672668	14770.043945	1527.886719	4.412024
606.860229	917.861511	14425.500977	1502.995483	4.331874
607.199036	915.112305	14251.335938	1482.042114	4.251052
607.537903	907.830750	14212.104492	1475.726196	4.268519
607.876648	902.109375	14254.679688	1485.385742	4.368270
608.215271	901.440613	14403.582031	1503.664185	4.460208
608.553955	903.446777	14652.273438	1533.831055	4.585004
608.892578	910.133972	14869.386719	1554.710083	4.617555
609.231140	919.050293	15007.515625	1570.165039	4.621616
609.569641	918.753235	14966.054688	1578.561157	4.697044
609.908081	912.660400	14823.765625	1593.941895	4.897393
610.246521	911.842957	14586.143555	1595.205078	4.997419
610.584961	914.889343	14247.323242	1587.180298	5.042522
610.923340	920.387756	13892.676758	1570.239624	5.009539
611.261597	910.431152	13450.426758	1567.118774	5.236745
611.599854	908.573547	13073.859375	1548.914551	5.263674
611.938110	904.635559	12753.393555	1532.642212	5.300190
612.276245	912.140137	12528.403320	1498.611450	5.048709
612.614319	904.264099	12370.288086	1482.041992	5.039043
612.952393	908.202148	12216.628906	1461.683105	4.894412
613.290466	912.363098	12075.973633	1454.327148	4.854738
613.628479	917.787109	11890.590820	1438.129272	4.742108
613.966370	916.969910	11757.143555	1418.661987	4.628081
614.304260	914.815125	11643.831055	1406.773438	4.585307
614.642151	912.585938	11586.468750	1397.708496	4.544949
614.979980	907.830566	11538.618164	1388.643555	4.522835
615.317749	904.487000	11535.719727	1375.566284	4.431088
615.655396	909.836853	11497.305664	1368.135864	4.328693
615.993164	915.335205	11490.768555	1380.247192	4.396151
616.330811	916.524109	11477.838867	1375.492065	4.345747
616.668396	915.038025	11497.604492	1378.092651	4.375637
617.005859	917.564270	11504.811523	1373.040039	4.302117
617.343445	920.610779	11486.531250	1387.603149	4.419798
617.680908	911.917297	11504.141602	1402.538086	4.631896
618.018311	903.372498	11495.968750	1413.832153	4.819023
618.355652	897.576843	11521.082031	1428.246948	4.995245
618.692993	904.561340	11484.674805	1438.797852	5.049440
619.030273	903.223938	11439.870117	1451.057739	5.199318
619.367554	898.171326	11380.874023	1464.283691	5.400443
619.704712	898.171387	11329.382813	1473.422974	5.514715
620.041870	899.211609	11316.675781	1482.190796	5.596172
620.379028	908.350769	11243.933594	1489.175171	5.619658
620.716064	901.589172	11224.094727	1488.729370	5.687962
621.053040	899.731628	11191.104492	1487.763306	5.713831
621.389954	892.672852	11181.742188	1478.624023	5.694890
621.726929	904.264099	11124.378906	1474.463257	5.579185
622.063843	911.991638	11090.573242	1470.525024	5.487340
622.400635	916.821289	11105.953125	1454.029907	5.272369
622.737427	908.945251	11145.629883	1422.302734	5.014880
623.074219	905.007141	11130.176758	1399.863281	4.839589
623.410889	906.641846	11131.366211	1389.609497	4.723527
623.747559	914.592285	11169.929688	1388.569336	4.621759
624.084167	916.598389	11268.007813	1384.854126	4.523594
624.420715	915.112305	11388.675781	1380.692993	4.445294
624.757324	917.341370	11546.049805	1392.507202	4.470589
625.093750	917.564270	11732.028320	1393.918945	4.404792
625.430176	921.279480	11925.290039	1404.172852	4.388340
625.766602	917.044250	12113.945313	1421.708374	4.507177
626.102905	920.462097	12315.527344	1441.324219	4.570944
626.439209	916.078308	12448.602539	1451.652344	4.644031
626.775452	908.053528	12536.355469	1442.661621	4.597474
627.111694	898.394226	12475.797852	1431.516235	4.604850
627.447876	899.583008	12402.239258	1426.092163	4.577283
627.783997	902.109375	12249.992188	1432.705078	4.675724
628.120056	900.177490	12103.913086	1440.135376	4.819445
628.456055	896.388000	11905.227539	1440.358276	4.941214
628.792053	898.765808	11704.907227	1431.516113	4.930069
629.128052	903.000977	11554.148438	1426.686523	4.916706
629.463928	903.223877	11376.637695	1432.482056	5.053349
629.799744	898.542786	11252.625977	1438.129272	5.211340
630.135559	898.468506	11117.840820	1445.262329	5.350562
630.471375	899.285828	11029.718750	1450.091919	5.437143
630.807068	906.938965	10949.620117	1457.447876	5.481692
631.142700	912.883240	10849.088867	1453.509766	5.440975
631.478333	904.932861	10774.266602	1448.011353	5.502687
631.813965	903.223877	10701.524414	1430.030273	5.376508
632.149475	896.165100	10646.019531	1424.977539	5.423798
632.484924	909.762512	10652.260742	1421.113892	5.248668
632.820435	902.926697	10646.242188	1422.228394	5.329825
633.155884	902.555176	10691.864258	1415.466797	5.239508
633.491150	897.056824	10730.798828	1396.222534	5.076050
633.826477	903.892578	10738.600586	1373.931641	4.779390
634.161804	906.939148	10702.043945	1356.321899	4.587830
634.497009	909.539612	10604.559570	1345.770874	4.499540
634.832153	906.344543	10521.636719	1343.021606	4.541485
635.167297	908.127869	10438.566406	1343.913208	4.572563
635.502380	903.966797	10345.465820	1346.142334	4.683319
635.837463	901.143372	10231.633789	1351.715210	4.829026
636.172424	907.087585	10094.396484	1352.161011	4.844438
636.507324	908.276428	9958.496094	1345.993896	4.836540
636.842224	913.403320	9852.243164	1342.130005	4.796223
637.177124	905.452942	9756.244141	1335.665649	4.860726
637.511963	903.000977	9677.706055	1339.455200	4.974004
637.846741	899.805969	9595.230469	1335.591431	5.011664
638.181396	896.165100	9530.809570	1338.786499	5.126110
638.516113	898.096985	9447.145508	1334.328247	5.102688
638.850769	900.177429	9376.631836	1324.297363	5.003507
639.185303	905.601563	9314.143555	1311.517212	4.827420
639.519836	901.217712	9276.471680	1309.139771	4.870564
639.854370	903.669678	9187.382813	1308.322388	4.884920
640.188843	907.979187	9086.999023	1304.161499	4.843885
640.523254	918.010071	9013.440430	1297.771362	4.691058
640.857605	922.542664	8953.477539	1293.907593	4.624180
641.191895	911.174316	8925.094727	1297.622681	4.822214
641.526184	909.911133	8861.120117	1302.749634	4.940613
641.860413	905.898743	8841.503906	1314.489380	5.148828
642.194580	911.842957	8818.171875	1311.145874	5.050421
642.528748	908.202148	8815.051758	1313.003296	5.119626
642.862793	909.168152	8796.178711	1304.607056	5.013800
643.196838	909.985352	8741.566406	1307.059204	5.070162
643.530823	916.152527	8711.697266	1298.291382	4.902016
643.864746	914.963684	8674.545898	1295.839478	4.908458
644.198669	921.130798	8661.839844	1288.483521	4.745725
644.532532	926.034851	8612.279297	1283.282349	4.647881
644.866333	927.743835	8596.081055	1277.635254	4.562807
645.200073	920.164856	8615.772461	1271.839722	4.569813
645.533813	911.545715	8672.761719	1263.146362	4.530226
645.867554	906.493164	8696.315430	1250.143433	4.411529
646.201172	907.310547	8707.907227	1247.617065	4.362570
646.534729	904.932861	8696.315430	1250.960571	4.441159
646.868225	898.617188	8695.721680	1258.836548	4.619912
647.201782	899.805969	8704.934570	1260.917114	4.626588
647.535217	896.165100	8716.081055	1262.997681	4.691004
647.868591	905.155762	8711.250977	1269.759277	4.670754
648.201965	903.595459	8654.409180	1269.313354	4.718445
648.535278	905.898865	8617.778320	1270.650879	4.729742
648.868591	897.056824	8610.942383	1264.780884	4.767041
649.201782	899.062927	8621.418945	1259.059570	4.661747
649.534912	899.657288	8643.263672	1246.725220	4.481993
649.868103	903.669739	8647.722656	1241.152710	4.357963
650.201172	906.716125	8664.291992	1244.496216	4.354197
650.534180	912.511719	8641.555664	1259.208130	4.485631
650.867188	907.979248	8614.658203	1260.545532	4.574815
651.200134	903.298157	8601.283203	1272.731323	4.799089
651.533020	898.988586	8567.327148	1271.542358	4.858338
651.865845	904.338379	8540.354492	1282.910767	4.957721
652.198608	907.459167	8477.420898	1285.808472	4.998034
652.531433	900.103210	8450.894531	1285.882813	5.109128
652.864136	902.629395	8435.141602	1284.099487	5.064314
653.196777	1037.117310	8547.413086	1355.355835	4.237363
653.529358	1040.609497	8493.915039	1353.869751	4.202971
653.861938	1039.420776	8421.470703	1347.034058	4.167044
654.194519	896.685242	8221.076172	1268.718994	5.079381
654.526978	898.542786	8185.856934	1266.118408	5.044048
654.859375	900.400391	8136.371094	1263.146362	5.013093
655.191833	906.344666	8117.126465	1253.858398	4.819363
655.524170	908.053528	8096.990723	1247.839966	4.726519
655.856445	906.716064	8098.179688	1236.694458	4.588473
656.188660	908.870911	8139.937500	1241.747070	4.603417
656.520874	908.276428	8198.859375	1236.545776	4.502649
656.853088	912.734619	8293.668945	1242.787231	4.471691
657.185181	917.415710	8360.616211	1233.648071	4.248607
657.517212	917.490051	8495.699219	1241.969849	4.281748
657.849243	913.106140	8689.406250	1250.291870	4.336069
658.181274	911.248535	8929.180664	1264.706665	4.408345
658.513123	911.174255	9138.937500	1278.229614	4.461180
658.844971	913.849121	9350.700195	1292.793091	4.491533
659.176819	900.994812	9494.550781	1296.136719	4.598119
659.508667	907.904968	9569.000977	1288.557739	4.394972
659.840393	903.298157	9512.754883	1281.721924	4.395443
660.172058	911.694336	9380.050781	1276.446533	4.307237
660.503662	903.075195	9170.442383	1275.332031	4.502725
660.835266	899.880310	8969.377930	1266.712891	4.545916
661.166931	906.716125	8742.235352	1261.363159	4.526146
661.498413	910.505615	8554.843750	1252.744019	4.477018
661.829773	918.010193	8330.820313	1238.849243	4.328170
662.161194	920.164856	8139.565918	1225.846313	4.234167
662.492615	915.112305	7960.941895	1211.951782	4.212981
662.823975	913.551941	7840.349121	1209.648315	4.274651
663.155212	902.332214	7735.210449	1209.276733	4.492170
663.486450	903.149597	7672.572754	1214.477905	4.599037
663.817627	892.227051	7600.648438	1219.827759	4.883425
664.148743	888.734863	7549.082031	1217.227173	4.932060
664.479858	888.660583	7470.692871	1220.347900	5.039284
664.810913	901.366272	7421.727051	1217.450073	4.847643
665.141907	910.356934	7406.495605	1227.183716	4.877155
665.472778	915.112305	7407.907715	1223.988647	4.757216
665.803711	917.564270	7414.669434	1226.589233	4.756349
666.134583	908.722351	7391.857422	1223.765747	4.859430
666.465454	905.973083	7402.631348	1226.589233	4.935093
666.796143	898.914368	7381.826660	1224.434448	5.021202
667.126831	903.372559	7382.940918	1219.381836	4.877011
667.457458	911.545837	7369.417969	1209.648315	4.616110
667.788147	916.078308	7375.882813	1210.762817	4.561818
668.118774	913.997742	7379.448730	1209.722656	4.573925
668.449219	905.973083	7372.761719	1213.214966	4.751073
668.779663	905.304382	7358.124512	1211.431641	4.744085
669.110107	908.573669	7348.019531	1210.391479	4.687016
669.440552	903.818359	7322.236328	1204.892944	4.690791
669.770874	902.109375	7302.992188	1199.840332	4.651404
670.101135	898.320007	7272.156250	1189.066406	4.561561
670.431396	900.623352	7239.166016	1185.202759	4.489666
670.761597	906.641785	7174.225098	1183.642334	4.419575
671.091797	907.979248	7125.854004	1185.500000	4.463273
671.421875	912.586121	7068.714844	1184.385376	4.415100
671.751892	907.459167	7036.765137	1176.880737	4.395629
672.081909	916.672668	6999.910156	1184.088257	4.395942
672.411865	915.855286	6992.183594	1184.459595	4.420504
672.741821	918.158691	6952.654785	1187.208862	4.458536
673.071716	905.378662	6925.385254	1180.595825	4.571709
673.401550	905.304382	6863.193848	1178.218262	4.580714
673.731262	900.400391	6852.865723	1178.738281	4.676010
674.060974	907.236267	6812.816406	1171.828125	4.480371
674.390625	910.208313	6791.640137	1169.747803	4.412862
674.720276	906.864746	6767.640625	1158.973999	4.301636
675.049927	905.229980	6748.544434	1158.750977	4.338651
675.379395	901.589172	6716.669434	1152.212280	4.309882
675.708923	909.019470	6686.947754	1162.168823	4.381317
676.038330	909.539551	6660.941406	1162.094604	4.391191
676.367737	910.802734	6655.963379	1165.586792	4.434760
676.697083	904.412781	6660.867188	1166.849976	4.559008
677.026428	902.034973	6669.412109	1170.267944	4.650866
677.355652	896.536621	6696.235840	1178.515503	4.861957
677.684875	899.880188	6737.176270	1181.116089	4.817914
678.013977	901.069031	6771.578613	1180.001465	4.751418
678.343079	910.059753	6846.699219	1189.289429	4.703497
678.672180	907.087585	6889.942871	1193.896118	4.793840
679.001221	912.065918	7006.523438	1209.796997	4.885276
679.330139	903.298157	7092.714844	1225.697876	5.208887
679.659058	902.778015	7176.751465	1239.666626	5.369621
679.987976	900.623230	7247.115723	1256.384766	5.605640
680.316772	902.778076	7304.478027	1254.972900	5.501583
680.645630	910.802734	7354.854980	1263.666382	5.475804
680.974304	912.065918	7326.024902	1262.328979	5.460949
681.302979	911.471497	7289.765625	1262.328857	5.500803
681.631653	910.208313	7220.664063	1254.229980	5.451614
681.960266	910.431335	7180.243652	1249.103149	5.401626
682.288757	909.465332	7090.485840	1244.421997	5.419116
682.617249	908.499329	6986.833496	1235.282715	5.376200
682.945679	903.298157	6855.540527	1219.604858	5.314076
683.274109	908.350769	6744.904297	1209.573975	5.160977
683.602478	904.561279	6661.685059	1199.097290	5.116027
683.930725	896.313660	6578.614746	1193.673218	5.233083
684.259033	897.353821	6494.652344	1181.264648	5.072283
684.587280	893.861755	6414.925781	1178.515503	5.155777
684.915344	901.737793	6336.090332	1174.874634	5.026115
685.243469	898.691406	6281.255371	1169.004761	5.022018
685.571533	905.081360	6225.304688	1149.908936	4.601829
685.899536	912.065918	6227.756348	1146.491089	4.410060
686.227539	918.381592	6235.930176	1148.199829	4.321883
686.555420	914.072083	6255.769531	1162.837524	4.657049
686.883301	909.613953	6271.892578	1159.419678	4.658574
687.211121	896.016602	6307.706543	1167.667358	5.019703
687.538940	902.480896	6364.027832	1166.552734	4.835111
687.866638	904.338379	6372.572754	1185.276978	5.137647
688.194336	915.260925	6345.453125	1182.602173	4.923237
688.521973	912.140137	6294.332031	1195.679321	5.268099
688.849609	907.384766	6221.589844	1198.651489	5.480908
689.177063	909.985413	6150.407715	1214.923828	5.818966
689.504578	914.666504	6053.442871	1222.056885	5.981781
689.832031	916.746887	5992.736816	1227.257935	6.117251
690.159485	906.790344	5900.898926	1227.109497	6.413941
690.486816	899.583008	5837.370605	1211.134399	6.309534
690.814087	906.716125	5767.748535	1198.502808	6.002566
691.141296	912.734619	5731.562988	1193.747559	5.831562
691.468506	920.462097	5681.929199	1208.831055	6.056304
691.795715	918.233093	5630.882813	1206.676270	6.120615
692.122803	917.935852	5576.567871	1189.883789	5.837506
692.449829	906.270325	5542.908691	1167.964600	5.644052
692.776855	898.691406	5509.917969	1158.676758	5.638095
693.103821	896.685242	5473.509766	1148.497192	5.501892
693.430664	905.452942	5443.268066	1140.398071	5.177495
693.757568	905.898743	5428.779785	1126.726440	4.882457
694.084351	903.743958	5414.067871	1125.537720	4.917469
694.411133	900.400391	5388.061523	1122.119629	4.940641
694.737854	900.920410	5380.928711	1123.903076	4.977283
695.064575	899.805969	5399.578613	1126.057739	5.028071
695.391174	905.527344	5433.089355	1124.051636	4.826533
695.717773	906.493225	5447.949707	1125.983398	4.833035
696.044250	915.335205	5474.921875	1130.367310	4.716043
696.370789	912.214417	5540.605469	1143.741699	5.002327
696.697205	912.214417	5638.833496	1153.326782	5.101159
697.023621	899.434387	5764.033691	1158.899536	5.333742
697.349915	896.313660	5924.527344	1164.100708	5.325689
697.676208	899.805969	6141.863281	1171.456665	5.182139
698.002380	905.675842	6384.981934	1181.636230	5.036411
698.328674	912.734619	6624.607910	1191.072632	4.872972
698.654724	904.338379	6794.612793	1196.422485	4.958752
698.980896	905.378662	6909.039063	1201.549316	4.933168
699.306946	907.310547	6912.010254	1197.165527	4.827135
699.632935	915.260925	6841.497559	1187.803345	4.598912
699.958862	921.056580	6677.287598	1170.045044	4.325547
700.284729	915.929688	6483.357910	1161.425903	4.409508
700.610596	910.431213	6252.053223	1155.630249	4.590348
700.936340	901.514893	6057.157715	1155.110229	4.918792
701.262146	893.713135	5831.128906	1139.952271	4.987206
701.587830	901.812195	5641.210938	1135.568481	4.932193
701.913513	909.019531	5435.466797	1129.772827	4.876966
702.239075	913.551941	5291.319824	1133.190796	5.017142
702.564697	905.898743	5182.837891	1135.419922	5.366482
702.890137	903.149597	5094.789063	1136.014282	5.555456
703.215698	900.920471	5003.173340	1136.906006	5.752584
703.541016	908.202148	4912.003906	1130.367310	5.548855
703.866455	909.316650	4853.156250	1133.710938	5.689742
704.191711	910.579895	4812.215820	1138.912109	5.852217
704.517029	902.257996	4780.711426	1141.438354	6.166901
704.842163	900.920471	4753.813965	1132.076294	5.999538
705.167419	900.549011	4739.473633	1134.156738	6.085239
705.492493	901.440613	4732.043457	1137.351685	6.158589
705.817566	904.635559	4701.802246	1135.122681	6.069976
706.142578	910.579773	4705.294922	1124.794556	5.645082
706.467590	912.511658	4698.755859	1119.890503	5.477165
706.792480	909.539612	4722.012207	1118.924683	5.492107
707.117371	910.282715	4708.340332	1112.683228	5.329053
707.442200	919.347656	4716.513672	1105.178589	4.893938
707.766907	917.341492	4729.516602	1099.605957	4.781115
708.091675	912.140137	4754.779297	1093.438965	4.718081
708.416321	903.743958	4781.751465	1097.599854	4.998853
708.741028	906.270264	4804.042480	1092.621460	4.780967
709.065552	911.768738	4814.519531	1098.714355	4.790099
709.390137	914.889404	4811.844238	1090.392456	4.503595
709.714600	913.700623	4803.373535	1101.240601	4.821485
710.039063	904.932922	4830.048828	1102.132202	5.024037
710.363403	895.645020	4869.949219	1107.110596	5.320820
710.687744	893.267273	4939.867676	1107.184937	5.286355
711.012085	896.610901	5005.253906	1113.352051	5.275249
711.336304	898.691406	5065.587891	1117.587280	5.253211
711.660461	902.109314	5104.002441	1115.060913	5.067992
711.984619	901.960754	5086.467285	1119.296265	5.193815
712.308716	897.725525	5032.448730	1123.011353	5.448631
712.632751	894.976318	4953.391113	1135.048462	5.915417
712.956726	898.542786	4886.072754	1130.738892	5.823056
713.280701	909.539551	4843.273926	1130.813110	5.625025
713.604553	908.499329	4797.875488	1123.308472	5.522972
713.928467	902.852356	4761.912598	1122.862671	5.701137
714.252258	897.205383	4726.916504	1119.964966	5.816616
714.575989	897.725403	4712.427246	1126.131958	5.987534
714.899719	895.793640	4717.107910	1120.559448	5.881898
715.223267	899.954590	4737.318848	1119.742065	5.727563
715.546936	904.709961	4749.207031	1114.912354	5.467618
715.870422	908.796570	4753.665527	1118.255981	5.447765
716.193970	903.298157	4736.946777	1116.324097	5.556741
716.517395	908.499329	4700.761230	1108.968140	5.286260
716.840820	911.397156	4656.997559	1106.441772	5.207299
717.164124	921.576660	4594.583008	1099.828979	4.853036
717.487488	914.294922	4519.462891	1092.250000	4.936110
717.810730	909.390930	4446.126465	1085.265503	4.972794
718.133972	902.183594	4366.770996	1074.714478	4.979839
718.457092	902.034973	4297.446777	1072.485474	5.020024
718.780212	913.180481	4225.818848	1057.847900	4.367136
719.103210	917.787170	4166.524902	1049.971802	4.068799
719.426208	916.969910	4113.324707	1041.426880	3.893716
719.749207	913.626221	4065.176025	1045.142090	4.173054
720.072083	909.465332	4032.631592	1039.866577	4.175290
720.394958	909.613953	4019.479736	1038.231934	4.135805
720.717773	905.898743	3974.229736	1031.544800	4.094932
721.040527	912.660339	3936.112549	1034.219604	4.020545
721.363281	914.220703	3908.174561	1029.761353	3.859133
721.685913	908.945129	3913.301514	1029.315552	4.006529
722.008545	900.846191	3896.805908	1033.625122	4.431933
722.331055	898.468506	3862.180908	1038.009155	4.708306
722.653503	907.013367	3823.989502	1035.036987	4.388916
722.976013	911.397156	3819.531250	1037.786011	4.346046
723.298401	908.945129	3829.339111	1043.061646	4.592412
723.620789	898.840027	3835.060547	1044.101929	4.947241
723.943115	897.428284	3817.748291	1044.696167	5.042868
724.265381	897.279724	3795.234619	1047.296875	5.176656
724.587585	902.926758	3783.643311	1054.429810	5.259214
724.909790	905.898743	3788.696045	1051.532104	5.051807
725.231873	906.939026	3805.860107	1045.216309	4.769957
725.553894	911.099915	3839.147461	1045.587891	4.593094
725.875916	951.594971	3909.735107	1078.801147	4.300208
726.197937	954.715637	3928.682373	1084.151001	4.352280
726.519775	951.520691	3933.066162	1085.265503	4.485754
726.841675	909.316711	3902.676514	1048.485718	4.649258
727.163513	907.830627	3920.508789	1047.445313	4.634238
727.485291	903.000977	3946.960205	1052.349487	4.906390
727.806946	903.669617	3980.991211	1055.990234	4.949779
728.128662	899.508728	3988.495850	1059.631226	5.183657
728.450256	905.527283	3980.248047	1056.361938	4.905638
728.771790	905.527161	3956.322998	1058.442383	5.012306
729.093323	911.397156	3946.440430	1056.213257	4.771468
729.414795	910.579773	3939.901611	1056.436157	4.814820
729.736145	910.431152	3936.781006	1057.996460	4.876016
730.057495	915.781006	3951.270264	1053.909790	4.550462
730.378845	913.254700	3982.774170	1050.863403	4.483070
730.700134	902.034973	3996.446045	1046.925293	4.682323
731.021301	891.929932	4022.006104	1052.720947	5.136968
731.342468	896.611023	4043.182617	1049.823242	4.869180
731.663574	910.282715	4084.271729	1049.154419	4.375305
731.984680	916.969910	4096.605957	1042.987305	3.963265
732.305664	909.242371	4098.389160	1043.655884	4.214717
732.626648	905.898743	4089.844482	1050.194702	4.531985
732.947571	900.400391	4088.432861	1053.389526	4.798858
733.268433	911.768738	4073.423828	1058.813599	4.650883
733.589233	911.917297	4059.826416	1052.572388	4.468207
733.909973	915.112305	4006.477295	1053.761230	4.485039
734.230713	910.802734	3943.171143	1050.863281	4.618850
734.551331	904.115417	3864.410156	1047.965576	4.859319
734.871948	904.561279	3824.806885	1042.541382	4.724948
735.192505	910.134033	3787.952393	1041.798462	4.575147
735.513062	915.929626	3757.934570	1041.055298	4.402725
735.833435	912.660339	3707.037109	1033.105103	4.310255
736.153931	906.790344	3669.885742	1025.823364	4.307959
736.474304	909.168152	3620.400391	1031.544678	4.513687
736.794617	913.477722	3606.208252	1036.820190	4.580573
737.114807	910.951355	3583.992188	1040.758179	4.856148
737.434998	908.722229	3605.985596	1031.098999	4.537072
737.755188	901.812195	3594.617188	1034.219604	4.917081
738.075256	899.508728	3611.855469	1033.402222	4.936445
738.395325	897.279602	3627.384766	1038.677612	5.179214
738.715271	904.189758	3670.406006	1038.083252	4.840312
739.035278	910.431213	3696.560303	1038.009033	4.579035
739.355164	909.019531	3703.841797	1041.724243	4.748234
739.675049	904.115540	3685.934814	1032.659302	4.620852
739.994873	908.202148	3662.306641	1033.773804	4.559437
740.314636	909.613953	3628.870361	1023.668457	4.194327
740.634277	914.072083	3583.768799	1025.303223	4.166433
740.953979	906.716125	3540.376221	1015.346680	4.124699
741.273499	912.140198	3497.428955	1017.724365	4.084038
741.593140	907.384766	3467.188232	1018.616028	4.345305
741.912598	911.025574	3437.169922	1021.588135	4.376732
742.232117	914.889343	3396.749023	1013.191895	3.960843
742.551453	920.164856	3361.455078	1006.950439	3.554906
742.870850	920.239197	3333.814453	1008.882324	3.672690
743.190063	912.065918	3307.362549	1010.294128	4.100879
743.509338	910.579895	3281.728271	1013.860657	4.355727
743.828552	908.945251	3254.310547	1011.557312	4.375099
744.147705	909.242432	3246.805908	1012.151672	4.402415
744.466797	918.158752	3239.227295	1006.727539	3.815862
744.785828	916.598389	3232.985596	1007.247620	3.913388
745.104858	917.118591	3218.496826	1014.900818	4.248855
745.423706	905.230164	3207.946045	1016.164001	4.817522
745.742615	904.264160	3186.323486	1015.941101	4.893692
746.061401	906.938965	3171.760498	1005.538635	4.353529
746.380249	909.390930	3159.128906	1000.114563	4.032631
746.698975	910.133972	3159.203125	999.297180	3.964449
747.017639	910.654114	3155.785156	999.817383	3.971406
747.336304	913.329102	3150.137939	1008.287903	4.245280
747.654907	910.356934	3136.689453	1007.842102	4.378734
747.973389	909.539551	3135.128906	1008.065002	4.426938
748.291931	904.264099	3143.302002	1006.801941	4.579549
748.610352	904.264160	3151.846924	999.074402	4.218320
748.928711	908.276428	3150.509766	993.278748	3.790967
749.247070	908.499451	3148.503174	993.947449	3.814636
749.565308	913.031799	3144.045166	1008.436523	4.276295
749.883545	909.168152	3135.797607	1014.306458	4.721859
750.201782	912.957520	3115.290283	1013.043274	4.544534
750.519836	916.524109	3106.447998	1005.464355	4.061340
750.837952	906.493164	3114.472900	1014.157898	4.876165
751.155884	909.762512	3116.181641	1022.479797	5.108607
751.473877	905.378662	3103.401611	1021.811035	5.297141
751.791809	915.186584	3085.123291	1024.485962	5.036984
752.109619	912.511719	3086.163818	1016.238342	4.771997
752.427490	906.344543	3081.111328	1017.501465	5.111211
752.745300	909.316650	3064.021484	1016.609802	4.979483
753.062988	901.663513	3037.123779	1022.108215	5.640222
753.380615	908.796570	3043.439453	1032.659180	5.802498
753.698303	904.189880	3044.479736	1031.098755	5.929518
754.015808	907.979248	3046.857422	1025.526123	5.495726
754.333374	907.533386	3039.278564	1016.461243	5.109797
754.650757	907.904846	3037.346436	1010.294128	4.808269
754.968262	911.545715	3034.077148	1012.597473	4.760907
755.285583	905.675781	3025.755127	1005.018616	4.685807
755.602905	907.310547	3022.188721	1004.052734	4.574362
755.920105	900.400391	3009.780273	1009.625305	5.178058
756.237305	903.149597	3005.248047	1015.421082	5.340924
756.554443	900.103088	3001.978516	1018.987488	5.656110
756.871582	907.756348	3029.024658	1008.585144	4.753232
757.188599	912.660339	3044.033936	1011.260071	4.626112
757.505615	912.883301	3067.141846	1008.808044	4.452796
757.822510	909.168152	3077.618896	1015.198059	4.889662
758.139465	904.932800	3100.578125	1010.516907	4.808796
758.456238	901.960693	3123.760498	1008.733704	4.805699
758.773010	900.846191	3150.286865	1012.968933	4.984472
759.089783	899.954590	3172.726318	1014.752197	5.050996
759.406433	901.737793	3174.732422	1021.439453	5.266253
759.723145	906.418945	3172.651611	1015.941101	4.832785
760.039673	903.743958	3167.896484	1015.866882	4.952092
760.356201	903.669678	3184.094482	1015.198059	4.890685
760.672668	899.954529	3190.410156	1027.086548	5.550512
760.989136	902.406494	3203.561768	1033.848022	5.711980
761.305481	903.743958	3202.075928	1042.987305	6.058452
761.621826	906.641785	3218.050781	1041.872681	5.850583
761.938049	907.236145	3240.044678	1041.872681	5.771435
762.254333	908.276367	3276.378662	1040.535278	5.585017
762.570496	909.911133	3351.795898	1033.996704	5.081549
762.886597	914.443604	3475.955811	1044.101807	5.061783
763.202637	914.815125	3686.752686	1049.600220	4.862487
763.518677	905.007141	3974.080811	1061.711548	5.105918
763.834656	898.617126	4255.093750	1069.141846	5.080468
764.150574	891.335449	4442.410645	1081.773315	5.362823
764.466370	894.233215	4440.999512	1089.575195	5.507608
764.782288	900.103088	4325.979004	1086.677246	5.446028
765.097961	908.722168	4159.615234	1072.411255	5.035203
765.413696	907.979187	3971.109375	1059.259644	4.938754
765.729309	907.904968	3779.779541	1042.690063	4.693279
766.044861	905.452942	3592.016602	1037.340332	4.909148
766.360474	912.363098	3467.782471	1027.606567	4.509767
766.675903	912.140198	3364.873047	1023.222717	4.528928
766.991394	915.038025	3283.511719	1020.547852	4.454761
767.306763	913.329041	3213.592529	1018.021484	4.551324
767.622131	911.174316	3162.621094	1019.804871	4.824922
767.937378	909.093750	3117.221924	1017.724426	4.919582
768.252625	903.075195	3060.900391	1013.637878	5.123802
768.567810	901.514893	2998.857666	1015.569641	5.438059
768.882996	898.468506	2956.356689	1006.801941	5.264301
769.197998	899.805969	2911.106445	1002.417969	5.101774
769.513062	897.502625	2888.369873	993.278748	4.810774
769.828064	901.737793	2858.945557	994.764832	4.753049
770.142944	902.778076	2836.580322	995.582092	4.799044
770.457825	904.412781	2813.917969	995.062012	4.747263
770.772705	907.756348	2788.878174	990.826843	4.416008
771.087402	909.391113	2773.720459	987.929016	4.212663
771.402100	910.579895	2751.132568	979.607117	3.750353
771.716736	899.657410	2729.213135	976.634949	4.207445
772.031372	896.908203	2715.764404	973.216980	4.195426
772.345947	904.264099	2699.269287	977.675110	4.089738
772.660461	908.499329	2688.049561	976.560608	3.824634
772.974854	910.728333	2669.473877	982.579163	4.085345
773.289246	905.824463	2660.557617	983.693665	4.437666
773.603638	910.282715	2640.198486	982.579163	4.179189
773.917908	909.836914	2619.913818	980.201477	4.114702
774.232178	908.202148	2600.520752	983.173584	4.430102
774.546265	900.103210	2591.158936	985.477051	5.048553
774.860474	905.675842	2572.731689	987.334534	4.898377
775.174561	908.053528	2565.449951	985.848450	4.693803
775.488586	915.409485	2560.100342	989.340759	4.495147
775.802551	907.979248	2548.137695	992.089905	5.128203
776.116516	904.561340	2537.735352	988.374817	5.131938
776.430359	903.966980	2519.531006	985.105469	5.022301
776.744202	908.945129	2527.035645	979.532776	4.362404
777.057922	910.654114	2522.800293	980.573059	4.337010
777.371704	904.264099	2523.543457	980.127197	4.684991
777.685303	899.211426	2506.676514	987.260315	5.477499
777.998962	901.143372	2497.240234	993.278809	5.772546
778.312500	901.440613	2498.131592	996.102295	5.928617
778.626038	905.452942	2511.654785	991.644104	5.366148
778.939453	902.703796	2502.961426	988.449158	5.358222
779.252869	903.372498	2488.918213	987.111633	5.281408
779.566223	897.131104	2475.766602	990.232422	5.897582
779.879578	901.143372	2479.927490	986.145691	5.384037
780.192749	905.898743	2485.723389	985.774231	5.055972
780.505920	915.112305	2476.138428	980.201477	4.169640
780.819031	913.403320	2453.847412	983.396545	4.543705
781.132141	915.781006	2434.156982	982.579285	4.399324
781.445190	918.827454	2432.002197	979.830078	4.031433
781.758118	917.787109	2425.166504	976.560730	3.899060
782.071045	915.186584	2411.197510	974.257324	3.948550
782.383911	910.579834	2399.160400	971.805359	4.113014
782.696838	902.778015	2397.748779	972.696960	4.676944
783.009583	898.765808	2392.101807	969.204651	4.716878
783.322266	897.205322	2370.256836	972.696960	5.124847
783.634888	904.858582	2362.455078	972.399719	4.633734
783.947510	908.870911	2355.916260	973.811523	4.487808
784.260132	907.310547	2352.944336	975.074707	4.687505
784.572571	903.372498	2345.439697	974.777527	4.951574
784.885010	908.499329	2340.312744	977.601013	4.826165
785.197449	913.551941	2330.876221	981.390381	4.786374
785.509766	913.626282	2312.374756	975.223145	4.403712
785.822083	903.743958	2303.532959	975.743225	5.143580
786.134277	900.103210	2300.263672	971.805359	5.120996
786.446533	905.378601	2307.173584	974.331604	4.918908
786.758606	915.038086	2305.836182	979.235596	4.615876
787.070740	920.387878	2307.768311	980.275818	4.316620
787.382690	920.610657	2319.359375	982.950684	4.456842
787.694641	915.483826	2354.504639	977.972412	4.342438
788.006653	912.957520	2394.108154	979.086914	4.464731
788.318481	911.620117	2436.163330	983.024963	4.683688
788.630310	908.276428	2478.292969	982.876282	4.751533
788.942017	909.093811	2512.026611	986.962952	4.857916
789.253784	908.127930	2531.344971	983.916565	4.669039
789.565430	908.127930	2516.781982	982.059082	4.595839
789.877014	909.019470	2488.026611	975.297546	4.197453
790.188538	908.870850	2433.785645	973.142761	4.214787
790.500061	911.025635	2384.300049	971.582336	4.110348
790.811462	901.737793	2346.925781	965.192383	4.390750
791.122925	902.926697	2315.867188	974.703125	5.079933
791.434204	899.583008	2289.118164	980.052917	5.791139
791.745483	903.595398	2265.266846	977.972351	5.462181
792.056702	905.972961	2253.230225	968.387390	4.632703
792.367920	905.898682	2237.106201	960.882751	4.130391
792.678955	901.589172	2222.468750	964.895020	4.792704
792.990112	895.199219	2212.140625	968.164368	5.540501
793.301086	902.035095	2211.248779	977.006409	5.726439
793.612122	906.270325	2201.663818	975.148926	5.317195
793.922974	907.384827	2188.066406	972.919861	5.117199
794.233826	900.920471	2182.270752	968.164490	5.247903
794.544556	898.319885	2193.416260	974.925964	5.915087
794.855286	904.487061	2196.462646	971.359436	5.175978
795.166016	904.858582	2208.053955	975.148926	5.393692
795.476624	910.654114	2212.066162	969.576172	4.527548
795.787292	902.629456	2240.449951	972.771179	5.242984
796.097778	901.366211	2264.003906	968.164490	4.902131
796.408264	901.737793	2290.901367	970.319153	4.936882
796.718689	903.892578	2313.637939	967.124207	4.485322
797.029053	909.242371	2318.690674	960.659851	3.648057
797.339355	910.877014	2317.055908	961.923035	3.630123
797.649658	911.025635	2311.854736	966.381165	3.951626
797.959839	905.898743	2291.421631	966.529785	4.376040
798.270020	905.824463	2265.564209	963.780579	4.262295
798.580078	905.230042	2232.648193	964.820862	4.489227
798.890137	908.870911	2209.317139	968.758972	4.605193
799.200195	904.264099	2194.679443	968.981750	5.015258
799.510071	906.344543	2177.441162	961.254211	4.319866
799.820007	903.223877	2170.531250	957.019043	4.244840
800.129883	895.942200	2154.704590	950.703308	4.350393
800.439575	896.016602	2143.261963	954.269836	4.670551
800.749329	897.279602	2138.209229	954.269836	4.592544
801.058960	902.406494	2131.670654	954.121277	4.206971
801.368591	902.332214	2123.051514	948.028381	3.743381
801.678162	897.056824	2104.030029	946.542297	4.099965
801.987671	902.629456	2097.937256	945.576416	3.592962
802.297119	902.109375	2097.045654	948.771423	3.904982
802.606506	908.127869	2086.791992	944.461914	3.082646
802.915894	904.561340	2078.247070	946.542297	3.576848
803.225159	903.521057	2061.603271	952.709473	4.247403
803.534424	902.852356	2061.528809	965.117981	5.373857
803.843628	899.211609	2058.854248	970.170654	6.119044
804.152771	901.440674	2057.516602	964.449402	5.450224
804.461792	902.332214	2060.414307	965.563904	5.460035
804.770874	908.053528	2051.349365	960.362610	4.575288
805.079773	909.242371	2067.324463	953.824036	3.849612
805.388733	911.471436	2071.188232	950.108887	3.331628
805.697571	905.304382	2102.469727	952.337952	3.928745
806.006470	904.932800	2114.655518	963.557617	4.846137
806.315125	905.007080	2125.875244	963.409119	4.783648
806.623901	909.762512	2120.525635	964.597900	4.528994
806.932495	907.087585	2107.819580	955.458679	4.028467
807.241150	910.133972	2099.720703	955.310059	3.797629
807.549622	911.545715	2085.454346	957.687805	3.930637
807.858154	916.078186	2075.795166	959.916809	3.780114
808.166565	911.397156	2060.562744	959.322449	4.170443
808.474915	907.979187	2048.006104	955.830139	4.197353
808.783264	902.480774	2027.572632	960.437012	5.151245
809.091492	900.623291	2013.678101	954.046936	4.799732
809.399719	900.028809	2001.863892	955.310059	5.017198
809.707825	895.199219	1993.393433	942.307068	4.289574
810.015930	891.558350	1972.737305	939.780762	4.460169
810.323975	891.632629	1968.501953	954.492737	5.837301
810.632080	904.264160	1967.907593	961.551575	5.385961
810.939880	907.161926	1970.656860	962.814697	5.233008
811.247864	911.545837	1953.121460	946.096497	3.317153
811.555664	902.852356	1943.536499	952.189270	4.740816
811.863464	908.722351	1944.279297	958.356445	4.792986
812.171143	907.384766	1939.301147	956.350342	4.745111
812.478882	907.830566	1932.985352	949.885986	4.102348
812.786438	904.338379	1918.942017	945.502136	4.057127
813.094055	908.127869	1924.291992	939.632141	3.100313
813.401489	910.356934	1918.570679	938.591980	2.800502
813.708984	909.019531	1914.558228	936.288574	2.711884
814.016357	894.233337	1912.329102	942.901550	4.780318
814.323730	888.066162	1907.945313	945.799316	5.660784
814.630981	887.768982	1904.750122	944.684814	5.596548
814.938232	897.205383	1888.552124	946.542419	4.976769
815.245361	900.920593	1893.381714	950.034607	4.948709
815.552490	901.737793	1901.629395	953.378235	5.164604
815.859619	899.211487	1909.059570	952.115051	5.238765
816.166565	898.914307	1909.802856	948.548523	4.909959
816.473572	898.468506	1901.481079	948.548584	4.992966
816.780457	900.697571	1903.264282	950.034607	4.921072
817.087341	897.799805	1895.313843	948.548523	5.087519
817.394043	903.223877	1906.087769	946.022278	4.267618
817.700806	903.000977	1916.712891	944.610413	4.104661
818.007507	905.824463	1939.449585	944.238953	3.716482
818.314209	903.000977	1947.845825	952.040771	4.693500
818.620667	907.681946	1959.065430	949.811707	4.007078
818.927246	911.099915	1979.870239	945.502136	3.218860
819.233704	912.363098	2008.774048	940.672424	2.582000
819.540161	910.802734	2063.832275	940.895325	2.609872
819.846497	906.938965	2133.899658	946.691101	3.239887
820.152832	902.629456	2233.836914	954.938660	3.929455
820.458984	900.697571	2339.198242	964.672302	4.447320
820.765259	901.886414	2444.485107	968.090149	4.291702
821.071350	905.230042	2572.657227	970.244934	3.899114
821.377502	910.728455	2764.358154	986.814453	4.104703
821.683472	910.356934	3162.100830	1006.504639	4.269922
821.989441	904.635681	3914.936279	1040.015259	4.497211
822.295349	899.880188	5134.837891	1084.596802	4.361711
822.601196	902.034973	6647.419434	1143.890503	4.209562
822.907043	912.140198	8054.563965	1194.416138	3.952103
823.212769	916.226868	8881.999023	1231.641968	3.959630
823.518494	914.666504	8906.295898	1238.997925	4.058389
823.824097	902.332214	8231.477539	1217.375854	4.298504
824.129700	898.319885	7153.196777	1170.936646	4.358467
824.435242	897.353943	6026.916504	1121.153687	4.362940
824.740723	904.932861	5062.318359	1079.321411	4.194668
825.046082	902.257996	4340.839355	1049.154419	4.272007
825.351501	910.133972	3813.067139	1023.668518	3.911029
825.656799	909.465332	3452.030273	1004.647156	3.743536
825.962036	910.802734	3210.323242	991.049744	3.489728
826.267212	911.694397	3113.432373	993.278809	3.705455
826.572449	916.747009	3126.658447	1001.006287	3.812790
826.877502	923.880066	3307.882813	1008.956726	3.568648
827.182495	921.428040	3598.554932	1021.662415	3.744102
827.487488	920.387756	3964.867432	1031.173218	3.638896
827.792419	905.601563	4267.502441	1042.690186	4.077712
828.097290	900.325989	4383.563965	1046.999756	4.210845
828.402100	892.895813	4266.536621	1045.885132	4.534843
828.706848	899.731689	3946.811768	1032.882202	4.369774
829.011597	899.062988	3528.859131	1010.517029	4.238125
829.316223	898.468506	3118.559326	991.124023	4.173501
829.620789	900.994812	2777.733154	979.235596	4.168977
829.925354	899.880188	2531.047852	974.405945	4.568859
830.229797	909.539551	2349.971924	973.662842	4.451670
830.534302	912.734680	2215.038330	962.888916	3.851193
830.838562	920.313477	2116.587158	950.628967	2.534160
831.142944	912.214539	2050.086426	945.130615	2.892776
831.447144	904.561340	2014.346680	949.588806	4.057313
831.751404	895.273499	1989.678223	957.316223	5.669084
832.055542	888.586243	1962.855103	956.721863	6.342511
832.359619	885.316895	1947.474243	948.920105	5.988116
832.663635	894.010315	1970.062378	949.068665	5.116700
832.967651	896.462341	2035.820313	949.960266	4.695445
833.271545	904.041260	2161.020264	962.071594	4.616651
833.575439	901.440613	2356.733643	974.628723	5.029098
833.879211	905.230042	2621.177002	991.272522	5.014286
834.183044	902.629395	2893.125000	998.331299	4.807943
834.486694	900.623291	3097.680420	1000.411804	4.541917
834.790344	900.549011	3156.305420	1007.247620	4.730059
835.093933	904.041199	3090.844727	1009.253906	4.811256
835.397522	904.784180	2902.041260	1001.229187	4.828873
835.700928	902.332214	2683.814209	980.944580	4.412751
836.004395	903.966980	2449.388916	972.251160	4.418481
836.307739	907.162048	2272.251221	970.542175	4.642930
836.611023	914.443665	2123.125732	966.901367	4.340075
836.914307	909.539551	2016.575806	959.693909	4.530507
837.217529	903.372498	1918.644897	955.978821	5.181499
837.520691	889.329285	1853.927124	956.796082	6.994293
837.823730	890.964050	1793.444824	955.235779	7.121673
838.126831	897.428223	1755.179077	953.972656	6.592175
838.429749	911.545715	1711.340332	950.480469	4.868094
838.732727	911.842957	1680.504517	947.879883	4.688270
839.035522	907.384827	1659.774048	937.328857	3.979859
839.338379	904.635559	1662.746460	931.310364	3.518589
839.641113	904.784180	1680.653320	934.579590	3.840262
839.943848	913.774902	1720.851074	943.198730	3.645731
840.246460	917.564392	1777.172485	951.966492	4.002068
840.549072	914.963684	1842.707520	952.263672	4.020505
840.851563	911.174255	1880.081665	950.034485	4.010727
841.154053	913.329041	1891.152832	947.656799	3.510628
841.456482	918.010193	1851.252319	950.108887	3.439482
841.758850	904.635681	1792.627563	950.257507	5.137640
842.061157	895.124939	1709.333984	945.650696	6.205502
842.363403	893.787415	1632.950806	942.678650	6.614402
842.665588	903.966980	1579.898804	933.167908	4.320099
842.967712	904.412781	1542.970337	940.821106	5.701651
843.269775	899.434387	1527.663940	944.313293	7.143712
843.571777	892.524231	1507.082031	948.102722	9.043655
843.873840	894.456238	1488.357788	939.186340	7.531569
844.175659	894.307617	1470.302246	934.282410	6.940133
844.477600	900.400391	1452.841187	940.449524	7.249489
844.779297	894.456238	1436.420288	940.300964	8.458998
845.081116	897.056824	1433.373901	940.078064	8.021605
845.382751	896.462341	1424.754761	932.350586	6.793254
845.684387	904.189880	1419.256470	928.263916	4.673965
845.985962	901.886475	1402.241089	922.394043	4.098607
846.287537	902.852356	1389.089355	919.644714	3.453534
846.588989	899.211487	1383.665161	919.867676	4.263811
846.890381	907.310547	1367.690063	914.815002	1.630059
847.191711	909.688171	1357.733643	916.746887	1.575446
847.493042	907.607666	1349.188843	919.198914	2.624942
847.794250	904.115479	1359.888550	930.790100	5.852610
848.095459	899.805908	1359.739868	931.904724	6.979005
848.396606	904.338379	1355.355957	933.910828	6.556828
848.697693	898.691406	1343.095947	923.285583	5.534187
848.998657	903.000977	1347.034058	920.684998	3.982591
849.299622	907.161926	1342.575806	920.833679	3.139944
849.600464	913.403381	1342.798828	927.520813	3.287746
849.901367	909.093811	1335.145630	929.229797	4.726182
850.202087	897.799805	1322.662720	925.291748	6.470780
850.502808	889.626465	1312.483276	921.873840	7.626074
850.803467	896.611023	1309.734131	921.279358	5.971182
851.104065	906.493164	1320.136475	925.960449	4.706297
851.404663	912.585999	1312.186035	931.904724	4.834516
851.705139	908.499329	1307.876465	930.492920	5.506973
852.005615	909.168030	1301.337769	936.437195	6.953409
852.306030	915.558105	1302.378052	929.378418	3.572803
852.606384	916.524109	1302.378052	936.288574	5.122266
852.906616	916.226868	1300.669067	926.109131	2.570546
853.206909	912.957520	1305.424438	921.725281	2.234013
853.506958	916.746887	1298.068481	919.421875	0.701504
853.807129	915.409485	1293.833374	920.833557	1.433332
854.107178	912.808838	1286.551636	929.750000	4.532840
854.407166	906.344543	1284.768433	930.047180	6.263515
854.707092	906.716003	1281.573364	933.539368	7.155619
855.007019	909.762451	1276.669434	928.783997	5.184297
855.306763	910.133972	1273.400024	918.455994	2.290889
855.606567	908.573669	1267.901611	911.991516	0.951178
855.906250	902.629395	1269.536255	910.654114	2.187127
856.205933	905.973083	1259.134033	918.381653	3.513573
856.505493	902.778015	1260.768677	917.787292	4.192645
856.805054	907.459167	1271.913940	916.301208	2.426101
857.104492	906.195984	1283.505249	917.712891	3.052378
857.403931	911.397156	1289.598022	922.096741	2.829075
857.703308	908.870850	1284.173950	926.257751	4.632762
858.002563	910.505554	1285.214233	920.090576	2.557993
858.301819	911.397217	1280.978882	918.753113	1.990330
858.601013	914.220703	1265.003784	919.793396	1.588644
858.900208	914.294922	1255.790405	922.022461	2.262852
859.199219	914.294983	1242.341431	926.332031	3.669312
859.498291	916.746887	1248.508667	923.434265	2.015717
859.797302	908.053528	1250.514771	927.669495	5.727938
860.096191	899.360168	1260.025513	925.663330	7.292955
860.395020	892.821472	1249.474487	923.285645	8.541683
860.693787	896.685242	1249.920410	918.827454	6.268405
860.992554	897.948425	1246.428101	911.545715	3.901889
861.291260	903.223938	1248.285645	918.455872	4.414264
861.589844	902.035156	1233.425171	920.090576	5.448390
861.888428	911.917297	1229.264160	931.384583	6.134387
862.186890	907.013367	1230.081543	929.229797	6.876700
862.485413	913.254700	1235.728516	934.802490	6.682028
862.783813	909.242432	1239.889526	932.573425	7.056162
863.082153	909.762512	1242.713013	936.362854	7.989278
863.380371	913.477722	1240.038086	940.300964	8.213869
863.678589	914.294922	1238.774902	941.935547	8.518437
863.976746	919.867676	1240.038208	939.483643	6.126725
864.274902	913.031738	1246.205200	926.332031	3.992002
864.572937	906.418945	1248.582886	924.325867	5.233433
864.870911	901.514893	1244.124756	925.291748	6.939921
865.168884	898.022705	1247.468384	925.366028	7.824770
865.466736	903.521057	1247.765625	918.976074	4.489546
865.764587	904.412781	1245.685181	914.369324	2.917477
866.062317	901.960693	1235.505737	916.226868	4.277136
866.360107	902.109314	1234.539673	911.397156	2.793921
866.657715	904.635559	1243.604614	913.551941	2.630441
866.955322	908.499329	1247.839844	914.072083	1.642231
867.252808	909.985413	1251.926514	922.096741	3.541934
867.550293	904.635559	1242.192871	922.988464	5.436975
867.847717	907.459167	1232.310669	922.468262	4.620294
868.145081	902.778076	1228.892700	919.198914	5.035296
868.442383	902.034973	1232.236206	918.010071	4.837988
868.739624	902.332214	1239.666504	915.929688	4.030860
869.036804	901.143372	1231.419067	917.935852	5.084383
869.333984	907.236267	1230.378784	922.914063	4.851666
869.631042	908.870911	1228.669800	926.480530	5.506467
869.928101	915.929688	1226.143555	925.737549	3.161645
870.224976	914.072083	1222.428345	914.815125	0.240969
870.521851	912.808899	1219.604858	921.205139	2.736751
870.818726	911.991516	1223.840088	922.468262	3.359562
871.115479	914.072083	1227.183716	927.372253	4.247741
871.412231	912.585999	1237.066040	922.468262	3.045569
871.708862	908.053528	1240.929810	925.514648	5.245529
872.005493	901.217712	1240.558228	929.898621	8.451955
872.302063	904.189758	1237.214600	928.041016	7.162005
872.598572	908.053467	1226.663574	924.697327	5.223896
872.895020	913.923523	1230.898804	918.901672	1.570517
873.191406	916.449768	1232.533569	915.929626	-0.164558
873.487671	914.889465	1240.706909	917.044189	0.661329
873.783997	910.134094	1236.174316	918.010071	2.415646
874.080200	906.939026	1240.335327	921.799561	4.457318
874.376343	906.493164	1231.938965	915.929688	2.899568
874.672424	909.762512	1228.818359	917.638611	2.468564
874.968445	909.242371	1223.022827	920.907959	3.717755
875.264465	904.412781	1233.573730	929.750000	7.697517
875.560364	902.926697	1233.499390	934.208069	9.462782
875.856201	904.041260	1230.973145	932.424805	8.681791
876.152039	904.709961	1225.548950	927.446472	7.086580
876.447754	905.898743	1232.459106	924.474426	5.688285
876.743469	897.725525	1241.226807	924.325867	7.743884
877.039063	904.858582	1238.849243	923.137024	5.472741
877.334595	909.688171	1243.233032	924.028625	4.299408
877.630127	916.003906	1242.564331	922.022461	1.843014
877.925537	919.347595	1253.486816	926.852234	2.245962
878.221008	909.093750	1248.434204	927.743835	5.495981
878.516296	905.601563	1249.548828	930.344299	7.193759
878.811646	900.623291	1260.917114	930.790100	8.372835
879.106812	904.635681	1272.879883	926.926453	6.053258
879.401978	900.920471	1297.028198	925.291809	6.152705
879.697083	906.418945	1326.526489	925.737610	4.598505
879.992126	904.858582	1363.009155	925.886169	4.589667
880.287109	912.288818	1422.451294	931.756104	3.815899
880.582031	905.081482	1496.233887	936.065674	5.241321
880.876892	903.149597	1654.795898	942.752930	5.268879
881.171753	900.251770	1932.390991	953.452576	5.154422
881.466492	903.000977	2398.194580	973.885803	4.740846
881.761230	908.276428	3021.594482	1005.613037	4.605866
882.055786	906.121643	3638.381592	1031.990479	4.606766
882.350403	903.372559	4044.446045	1060.894165	5.014897
882.644958	904.784180	4107.454590	1069.587646	5.145814
882.939453	910.208313	3858.242920	1068.250122	5.360921
883.233826	911.322815	3445.045654	1040.312378	5.090910
883.528137	902.629395	2990.610352	1009.253723	5.106575
883.822449	904.338379	2606.688232	987.631653	4.892841
884.116577	901.217773	2295.954102	976.040527	5.364652
884.410828	907.830750	2063.386475	968.907471	5.285485
884.704956	898.691406	1870.645142	957.464844	6.046938
884.999023	900.177429	1727.315308	948.325623	5.821060
885.292969	896.685242	1626.337891	937.105896	5.539712
885.586914	908.945129	1557.682251	934.356689	3.917081
885.880798	908.350769	1504.852905	929.527039	3.550074
886.174622	910.505554	1458.785156	936.882996	4.810947
886.468384	910.579834	1431.887695	928.115295	3.363744
886.762085	908.870850	1408.853882	930.195801	4.265135
887.055664	909.391052	1389.758179	931.904785	4.686776
887.349304	897.576843	1359.442505	933.465149	7.770291
887.642822	903.000977	1328.904175	922.616882	4.605719
887.936340	902.406555	1307.059082	912.140320	2.405463
888.229736	902.629395	1279.567261	916.747070	3.745359
888.523071	900.623230	1268.496094	921.130859	5.574651
888.816284	905.007141	1249.177368	927.372253	6.498271
889.109619	917.564270	1234.316772	922.616882	1.595129
889.402710	911.694397	1220.793579	927.075012	4.975948
889.695862	905.230164	1207.939331	924.548828	6.381923
889.988892	893.861816	1211.951660	921.502258	8.689507
890.281921	896.313782	1218.193115	908.573608	3.808827
>>>>>End Processed Spectral Data<<<<<
