Jaz Data File
++++++++++++++++++++++++++++++++++++
Date: Fri Jun 04 11:42:50 2021
User: jaz
Dark Spectrum Present: Yes
Reference Spectrum Present: Yes
Processed Spectrum Present: Yes
Spectrometers: JAZA3586
Integration Time (usec): 32700 (JAZA3586)
Spectra Averaged: 10 (JAZA3586)
Boxcar Smoothing: 1 (JAZA3586)
Correct for Electrical Dark: No (JAZA3586)
Strobe/Lamp Enabled: Yes (JAZA3586)
Correct for Detector Non-linearity: No (JAZA3586)
Correct for Stray Light: No (JAZA3586)
Number of Pixels in Processed Spectrum: 2048
>>>>>Begin Processed Spectral Data<<<<<
W	D	R	S	P
191.335022	0.000000	0.000000	0.000000	0.000000
191.713211	403.835297	413.123077	405.990082	23.200216
192.091385	811.311340	818.147278	809.528137	-26.085714
192.469528	1227.035034	1231.419067	1221.611084	-123.720558
192.847641	1239.889526	1226.886597	1234.614136	40.570786
193.225739	1250.737671	1243.307495	1249.994751	9.998686
193.603790	1255.344482	1251.777954	1255.121582	6.249786
193.981842	1258.465210	1273.177124	1253.189819	-35.857948
194.359863	1257.573608	1281.276123	1255.864624	-7.210140
194.737854	1264.186523	1280.681763	1262.923340	-7.657867
195.115829	1271.096680	1273.622925	1271.616699	20.584682
195.493774	1282.242065	1270.576538	1271.765381	89.808922
195.871704	1281.424683	1272.656982	1269.313477	138.134354
196.249603	1276.817993	1278.749878	1262.105957	-761.537964
196.627457	1269.982178	1276.297852	1264.855225	-81.178246
197.005310	1269.090454	1275.109009	1262.849121	-103.701523
197.383133	1273.994507	1267.158691	1263.146240	158.697479
197.760910	1276.520630	1259.802612	1267.084351	56.443768
198.138687	1275.480469	1264.335083	1273.251343	20.000439
198.516449	1270.353516	1266.044067	1282.242065	-275.871735
198.894180	1268.644653	1274.291626	1277.486694	156.580200
199.271866	1269.759155	1272.582642	1270.799438	36.843925
199.649536	1270.204956	1278.972778	1260.174194	-114.404251
200.027191	1267.084351	1277.783813	1257.870728	-86.112946
200.404816	1259.951294	1277.189453	1250.514771	-54.742062
200.782410	1252.892456	1284.619751	1252.000854	-2.810204
201.159988	1255.641724	1290.563843	1249.920288	-16.383415
201.537537	1262.403198	1298.142822	1258.836792	-9.978858
201.915070	1270.279419	1294.130493	1261.957397	-34.891602
202.292557	1269.536377	1303.121094	1262.848999	-19.911968
202.670029	1261.734619	1310.848633	1262.403198	1.361280
203.047485	1254.081421	1316.941406	1253.264038	-1.300323
203.424911	1256.979126	1313.151978	1255.864624	-1.984058
203.802292	1257.127563	1309.511230	1256.607544	-0.992713
204.179688	1262.031738	1306.316284	1260.397095	-3.691228
204.557037	1254.601440	1312.631958	1260.842896	10.755470
204.934357	1252.669556	1313.894897	1259.802612	11.650497
205.311661	1252.446655	1315.158081	1263.071899	16.943075
205.688934	1252.372437	1306.464722	1262.105957	17.994286
206.066177	1249.028809	1301.040649	1256.533325	14.428477
206.443390	1242.192871	1294.799316	1256.161743	26.553537
206.820587	1241.524292	1296.656860	1247.022583	9.972855
207.197769	1240.706909	1299.257324	1248.954346	14.086042
207.574921	1243.456177	1299.554565	1245.313599	3.311007
207.952042	1243.307495	1294.724854	1247.765503	8.670238
208.329147	1252.149536	1292.495850	1249.325928	-6.998430
208.706223	1254.006958	1297.994263	1256.458984	5.574396
209.083267	1254.675781	1302.898193	1259.059692	9.091024
209.460297	1252.520996	1306.539063	1258.019409	10.178841
209.837280	1252.669556	1309.659668	1257.202026	7.953083
210.214264	1252.075195	1309.956909	1256.682007	7.959010
210.591217	1252.892456	1299.406128	1261.362915	18.210686
210.968124	1249.400269	1293.907593	1258.687988	20.867846
211.345016	1248.508667	1294.427734	1259.505249	23.947746
211.721893	1246.428101	1297.548340	1251.852173	10.610420
212.098724	1249.177368	1288.706421	1246.873901	-5.827275
212.475555	1249.994629	1282.242065	1245.610840	-13.594225
212.852356	1252.000854	1298.068481	1250.291870	-3.709730
213.229126	1251.555054	1306.093262	1249.623169	-3.542259
213.605865	1254.972900	1307.505005	1252.520996	-4.667439
213.982590	1256.533325	1294.130493	1250.514771	-16.007999
214.359283	1253.115356	1291.009766	1257.053345	10.392003
214.735931	1248.434326	1292.941650	1261.437134	29.214983
215.112579	1247.542603	1299.182983	1266.043945	35.827278
215.489197	1249.400269	1301.114868	1256.756226	14.224140
215.865799	1251.034790	1305.944702	1254.601440	6.495458
216.242355	1249.474609	1304.830200	1248.285767	-2.147647
216.618896	1251.406494	1304.830078	1255.344482	7.371254
216.995407	1252.000854	1299.926147	1249.697388	-4.806370
217.371902	1251.109253	1292.941650	1253.189697	4.973285
217.748367	1253.412720	1290.415405	1247.394165	-16.265184
218.124802	1252.892578	1298.588745	1249.994751	-6.341510
218.501236	1253.858398	1297.994141	1244.942261	-20.201626
218.877609	1248.137085	1305.052979	1247.617065	-0.913663
219.253983	1253.041138	1299.554565	1244.199097	-19.009653
219.630295	1247.394043	1310.477051	1244.719116	-4.240328
220.006592	1252.223755	1309.956909	1250.068970	-3.732318
220.382889	1250.217651	1307.579224	1256.161743	10.362498
220.759140	1254.155640	1297.697021	1262.180298	18.429958
221.135391	1255.270142	1298.737305	1254.304199	-2.222235
221.511581	1247.914185	1306.613159	1257.276245	15.949274
221.887772	1245.387939	1320.433472	1260.099854	19.603985
222.263931	1238.106323	1321.845337	1270.799438	39.041676
222.640060	1241.449829	1319.467773	1258.390869	21.714287
223.016159	1244.124878	1310.551392	1251.183472	10.626169
223.392212	1244.793457	1315.604004	1250.589111	8.184733
223.768265	1248.805786	1321.251099	1255.195923	8.820635
224.144302	1245.313599	1332.767944	1261.065796	18.011909
224.520294	1248.359985	1323.405762	1257.127808	11.683299
224.896286	1244.199097	1318.873413	1259.951172	21.094368
225.272217	1251.480835	1311.666016	1259.059570	12.592361
225.648148	1245.982422	1317.981812	1258.911011	17.956526
226.024048	1250.291870	1318.055908	1258.985229	12.828869
226.399902	1244.644897	1325.932007	1259.951294	18.830042
226.775772	1248.582886	1336.928833	1258.911011	11.690548
227.151581	1242.861694	1350.600586	1262.328979	18.068949
227.527374	1243.010254	1354.761597	1267.975952	22.340401
227.903137	1242.861694	1355.801636	1277.709595	30.855249
228.278870	1246.576660	1353.572510	1287.740356	38.472237
228.654572	1247.319702	1362.786133	1287.517456	34.813370
229.030273	1255.195801	1368.953247	1285.957153	27.041178
229.405930	1261.808716	1381.584839	1276.595093	12.345012
229.781555	1265.598267	1386.042969	1281.053223	12.831578
230.157181	1262.774658	1395.628052	1283.430786	15.548062
230.532761	1251.555054	1394.662109	1283.579468	22.377943
230.908325	1249.846069	1391.467163	1280.978882	21.983175
231.283859	1251.926636	1384.631226	1279.641479	20.884615
231.659332	1256.682007	1373.114258	1287.666138	26.611296
232.034821	1258.168091	1369.399048	1285.957153	24.983210
232.410263	1250.960571	1366.575562	1286.774536	30.976921
232.785690	1249.846069	1373.337280	1284.322510	27.918133
233.161087	1251.629395	1368.061646	1284.842651	28.525822
233.536469	1248.657227	1372.594238	1283.208008	27.877695
233.911804	1247.245483	1374.749023	1284.991211	29.603670
234.287140	1248.434448	1386.340210	1282.093384	24.407200
234.662430	1251.629272	1390.649780	1278.378296	19.241062
235.037704	1253.709839	1399.937500	1280.681763	18.445158
235.412933	1249.846069	1402.241089	1286.105835	23.793274
235.788162	1255.864624	1402.538086	1288.260620	22.087156
236.163345	1255.344482	1399.417358	1274.217407	13.099568
236.538513	1254.304321	1399.120117	1279.567261	17.444878
236.913635	1245.239380	1395.776489	1275.406250	20.039492
237.288742	1241.598511	1400.903442	1288.632202	29.524317
237.663834	1244.719116	1399.863281	1285.140015	26.053766
238.038879	1246.353882	1402.612305	1293.610352	30.242510
238.413910	1254.898560	1407.813477	1287.071777	21.039948
238.788910	1248.359985	1420.742188	1297.622681	28.577599
239.163879	1251.257813	1428.544312	1301.189331	28.164310
239.538834	1239.815308	1431.144897	1311.963013	37.708599
239.913757	1241.078247	1442.141602	1311.740112	35.144081
240.288651	1245.016235	1468.147461	1321.102417	34.099297
240.663528	1253.561157	1496.233887	1339.083618	35.241894
241.038361	1254.378540	1520.456543	1343.467529	33.482285
241.413177	1253.561157	1545.496460	1350.451904	33.189117
241.787979	1254.527222	1566.152710	1354.092773	31.950388
242.162735	1257.722168	1600.777710	1374.303101	33.983109
242.537476	1257.202148	1630.647461	1390.649780	35.734184
242.912170	1258.688110	1650.709351	1406.179077	37.623207
243.286865	1260.545654	1653.012695	1404.767212	36.747433
243.661514	1262.774780	1638.746582	1406.773438	38.300388
244.036148	1251.777832	1623.514526	1392.210083	37.777344
244.410751	1249.251587	1607.911011	1385.894409	38.098209
244.785339	1253.115356	1612.369141	1379.132813	35.077557
245.159882	1255.047241	1625.297852	1382.699341	34.477215
245.534378	1255.790405	1655.539063	1394.959351	34.814114
245.908890	1250.663452	1697.594360	1416.655762	37.140484
246.283356	1260.991577	1767.513184	1451.875122	37.685173
246.657791	1257.424927	1842.112915	1491.255737	39.992409
247.032196	1252.818115	1903.412720	1529.744507	42.565125
247.406586	1240.335327	1938.632324	1544.604980	43.573101
247.780960	1243.233154	1949.257690	1545.942383	42.875172
248.155289	1241.969971	1936.626099	1532.270630	41.790558
248.529602	1250.217529	1903.338501	1518.673218	41.103516
248.903870	1247.542603	1852.589722	1493.336060	40.623856
249.278122	1246.205200	1793.147461	1473.497192	41.556854
249.652344	1245.610840	1748.194336	1455.961914	41.853954
250.026550	1248.434448	1710.448608	1441.175415	41.717545
250.400711	1255.121582	1689.346680	1432.853638	40.930859
250.774857	1254.304199	1687.637695	1434.562622	41.598083
251.148987	1256.756104	1713.792358	1448.902954	42.041927
251.523071	1252.520874	1746.634155	1464.432251	42.887207
251.897125	1252.520996	1767.735962	1462.426147	40.741276
252.271164	1246.502441	1771.005249	1465.249634	41.705627
252.645187	1243.456055	1771.896973	1457.224976	40.452759
253.019165	1240.483887	1770.782349	1462.203125	41.810272
253.393112	1241.747070	1759.562866	1462.723267	42.674671
253.767044	1245.462280	1737.123413	1460.865845	43.811386
254.140930	1251.406372	1713.569336	1449.869019	42.942135
254.514801	1256.310425	1698.188843	1442.810181	42.206123
254.888657	1261.437256	1698.040039	1441.026978	41.133434
255.262466	1258.539429	1707.922363	1447.937134	42.146172
255.636276	1260.025513	1728.727173	1448.531616	40.218784
256.010010	1254.229980	1742.918945	1457.522095	41.599491
256.383759	1249.846069	1763.500854	1463.243530	41.544918
256.757446	1243.307373	1792.701660	1483.899780	43.792301
257.131134	1243.901733	1840.106812	1500.469116	43.033413
257.504791	1247.691284	1883.499634	1526.549438	43.858837
257.878418	1250.588989	1950.817871	1552.926758	43.176991
258.252014	1253.338257	2027.721191	1599.440430	44.693932
258.625580	1243.158691	2142.444580	1649.223267	45.154114
258.999115	1249.474487	2266.381592	1709.036743	45.192158
259.372650	1252.000854	2403.841553	1769.370728	44.916790
259.746124	1259.876953	2521.091309	1821.977051	44.568165
260.119598	1248.434204	2597.771729	1866.187134	45.781944
260.493042	1244.421997	2592.793457	1870.273926	46.415394
260.866425	1246.279663	2543.605225	1851.846680	46.678108
261.239838	1253.264038	2430.665039	1802.063843	46.611122
261.613159	1251.629272	2332.957031	1748.120117	45.914925
261.986511	1254.973022	2226.852539	1718.993530	47.744652
262.359802	1250.589233	2173.651611	1690.238281	47.629398
262.733063	1249.103149	2146.754150	1669.582153	46.842148
263.106293	1249.400269	2132.933838	1649.668945	45.303165
263.479523	1250.812012	2116.661621	1638.523560	44.778164
263.852692	1245.239380	2106.482178	1642.164429	46.087475
264.225861	1234.242554	2094.445068	1635.254272	46.618290
264.598969	1241.747070	2104.475830	1643.873413	46.610981
264.972076	1248.211426	2117.553467	1651.823730	46.427330
265.345154	1255.567383	2170.976807	1674.560425	45.771111
265.718201	1253.709839	2216.524414	1692.616089	45.585751
266.091217	1256.310547	2273.663086	1721.296875	45.705524
266.464203	1259.876953	2317.427490	1748.417114	46.195442
266.837158	1257.796387	2356.882324	1770.856812	46.680645
267.210114	1258.093628	2389.649902	1785.791504	46.634701
267.583038	1253.115356	2409.785889	1789.655273	46.386581
267.955902	1249.920410	2427.544189	1801.023438	46.797886
268.328766	1249.697510	2438.838135	1808.676758	47.006992
268.701569	1252.149536	2445.376953	1820.119507	47.599472
269.074371	1249.548950	2456.447998	1821.679688	47.405022
269.447144	1252.446655	2480.299072	1833.791138	47.346447
269.819885	1259.802612	2541.747314	1859.054077	46.745499
270.192596	1248.880127	2640.570068	1917.679077	48.056606
270.565277	1247.765625	2764.432617	1978.904297	48.206936
270.937927	1238.106323	2888.889648	2042.581665	48.732944
271.310577	1252.372437	2975.675049	2081.962158	48.139526
271.683136	1249.400391	3046.857422	2106.630615	47.691277
272.055725	1249.623169	3069.371094	2115.844238	47.601158
272.428284	1247.914185	3061.197998	2108.191162	47.443039
272.800812	1250.960571	3005.768311	2081.293213	47.317585
273.173279	1246.353882	2929.681885	2049.417725	47.706913
273.545776	1248.582886	2884.951904	2027.944214	47.627480
273.918152	1251.332153	2853.521484	2016.575806	47.762375
274.290558	1251.257935	2862.661133	2016.575806	47.493877
274.662964	1248.062866	2850.846680	2011.003052	47.600941
275.035278	1246.576782	2868.605225	2016.798828	47.485115
275.407593	1256.904785	2897.137451	2017.838989	46.391846
275.779907	1253.338257	2950.858398	2042.210327	46.472031
276.152161	1248.360107	3002.647217	2067.621826	46.700550
276.524384	1243.233154	3033.705811	2095.485596	47.599300
276.896606	1240.929688	3057.482666	2100.612305	47.324940
277.268799	1238.031982	3052.281494	2104.178955	47.741337
277.640930	1232.162109	3060.083252	2111.980713	48.132198
278.013031	1235.357056	3071.599854	2117.627686	48.047604
278.385162	1238.700562	3082.745361	2122.085693	47.904755
278.757233	1244.867798	3093.742432	2120.153809	47.341557
279.129272	1247.468384	3123.166260	2144.673584	47.833141
279.501282	1245.610840	3163.364014	2166.370117	48.012398
279.873230	1245.982300	3227.264404	2199.955078	48.149265
280.245178	1246.353882	3304.984619	2231.013672	47.830811
280.617126	1246.651001	3428.178955	2287.781006	47.724808
280.988983	1247.988525	3537.923828	2347.000000	47.993122
281.360870	1247.319702	3639.346924	2402.058350	48.274475
281.732697	1248.359985	3707.408447	2438.243896	48.387985
282.104492	1249.771851	3750.801025	2444.485107	47.768864
282.476288	1256.533325	3773.463623	2447.234619	47.307682
282.848053	1254.750122	3762.615479	2433.636963	47.007584
283.219757	1248.359985	3767.890869	2438.318115	47.229355
283.591461	1244.198975	3740.399170	2430.441895	47.521946
283.963135	1245.536499	3750.578369	2449.537842	48.063122
284.334747	1250.588989	3796.869141	2469.896729	47.885841
284.706360	1248.731567	3884.397705	2517.153320	48.125282
285.077942	1249.177246	3991.096436	2563.741211	47.943207
285.449524	1255.195801	4070.377686	2610.848877	48.155079
285.821014	1256.087524	4108.866211	2619.765381	47.801739
286.192535	1262.626099	4144.902832	2634.551514	47.598667
286.563995	1257.944946	4133.386230	2629.796143	47.709240
286.935425	1256.533325	4118.748535	2625.189453	47.818069
287.306824	1252.595215	4045.262939	2582.539795	47.622730
287.678223	1253.932739	3963.827393	2544.274170	47.615929
288.049561	1256.087524	3918.205078	2503.407471	46.854427
288.420898	1254.304199	3909.585938	2498.280273	46.849117
288.792145	1247.468384	3958.848877	2513.958008	46.710140
289.163452	1246.353882	4039.244385	2569.165039	47.363514
289.534668	1240.855469	4150.327148	2631.802490	47.807545
289.905914	1243.753296	4259.923828	2689.758545	47.941761
290.277039	1253.041016	4366.548340	2737.163330	47.667217
290.648193	1265.301025	4415.661621	2755.813721	47.312447
291.019318	1267.232788	4430.894043	2754.327393	47.005497
291.390381	1254.601440	4363.798340	2712.420898	46.887333
291.761475	1250.143188	4294.177246	2676.012451	46.841434
292.132507	1249.177368	4250.933105	2660.111572	47.003628
292.503510	1253.635620	4249.818359	2670.662354	47.294403
292.874481	1252.298096	4307.997559	2693.473633	47.163525
293.245422	1250.440552	4376.950684	2723.120361	47.102989
293.616364	1252.446655	4513.444824	2778.773193	46.805504
293.987213	1243.976196	4630.322754	2836.729248	47.034554
294.358093	1240.261108	4755.076660	2898.623779	47.182072
294.728943	1234.093872	4861.255371	2955.687744	47.463940
295.099731	1245.387939	4955.545898	3018.102295	47.780025
295.470490	1248.880127	5068.337402	3063.575439	47.511864
295.841248	1256.979126	5146.132324	3105.482422	47.529709
296.211975	1253.858398	5275.864746	3150.361084	47.153149
296.582642	1249.994751	5404.037109	3210.397461	47.192650
296.953308	1240.409668	5463.851074	3245.617188	47.478046
297.323883	1239.443726	5462.067871	3243.165283	47.452049
297.694519	1244.347656	5341.622559	3189.667236	47.478374
298.065063	1244.124756	5235.221191	3132.751221	47.320992
298.435608	1242.267212	5069.228516	3051.687256	47.280853
298.806122	1239.592285	4894.691406	2975.526611	47.493496
299.176575	1247.839966	4724.018066	2881.756592	47.003246
299.547028	1256.458984	4617.319824	2829.595947	46.807560
299.917450	1256.384644	4581.357422	2802.401367	46.497128
300.287872	1255.047241	4569.691895	2805.596436	46.778748
300.658234	1250.291870	4560.775391	2802.921143	46.900379
301.028564	1255.047241	4532.540039	2786.500732	46.726376
301.398865	1245.833618	4508.763184	2760.420654	46.418011
301.769135	1243.753296	4455.116699	2725.869629	46.152248
302.139374	1241.152710	4408.380371	2709.597412	46.363728
302.509583	1255.716064	4365.284668	2696.742920	46.341698
302.879791	1254.675781	4320.108887	2681.659424	46.550800
303.249939	1257.202026	4291.873535	2661.597656	46.278343
303.620087	1254.898682	4251.898926	2640.124268	46.220402
303.990173	1251.332153	4240.604980	2637.226563	46.362259
304.360260	1250.886230	4215.861816	2636.334961	46.727154
304.730286	1247.616943	4220.840332	2633.139893	46.600029
305.100281	1259.579590	4220.394531	2623.257568	46.057522
305.470276	1260.768677	4239.639160	2614.489990	45.444111
305.840179	1255.567505	4236.518066	2629.499023	46.090382
306.210144	1252.743896	4277.235840	2637.672119	45.790443
306.579987	1252.372314	4310.746582	2656.767822	45.919674
306.949890	1253.784058	4358.151855	2676.829590	45.840111
307.319702	1246.502441	4417.073730	2723.343506	46.579651
307.689484	1240.929810	4517.084961	2771.342773	46.713688
308.059265	1247.468384	4625.046875	2810.649170	46.281109
308.429016	1258.019409	4713.318848	2849.806641	46.067997
308.798737	1257.796509	4784.649414	2887.180908	46.199387
309.168396	1256.310547	4848.326660	2911.700439	46.085258
309.538055	1248.285767	4871.583496	2924.035156	46.249287
309.907684	1251.257813	4874.332520	2911.329102	45.819405
310.277313	1247.171143	4882.951660	2923.217529	46.098667
310.646851	1255.567383	4880.425293	2922.028564	45.973145
311.016388	1257.202026	4880.500000	2927.898438	46.109829
311.385895	1255.864502	4805.454102	2901.892578	46.372349
311.755371	1248.285645	4764.810547	2868.084961	46.062500
312.124817	1246.799683	4690.879395	2844.456787	46.388508
312.494232	1246.056641	4670.148926	2821.868896	46.021313
312.863617	1249.623169	4635.226563	2802.995850	45.881706
313.232971	1255.047363	4654.173828	2805.447998	45.611736
313.602295	1255.493164	4725.801758	2838.884033	45.626804
313.971619	1253.858521	4811.546875	2894.239502	46.108055
314.340820	1245.536621	4840.599121	2907.539795	46.230160
314.710083	1247.765625	4831.237305	2898.772217	46.072823
315.079285	1245.907959	4756.637207	2851.664063	45.738533
315.448486	1251.183472	4674.310059	2812.729492	45.617538
315.817596	1249.103027	4553.642090	2754.253174	45.547962
316.186707	1255.641724	4463.290039	2705.287842	45.193424
316.555786	1253.635620	4389.210449	2658.774170	44.812790
316.924866	1259.208252	4335.341309	2629.573486	44.548309
317.293884	1252.149414	4330.956543	2632.470947	44.832996
317.662872	1253.338257	4342.548340	2643.690918	45.006741
318.031830	1248.657227	4387.204102	2664.569824	45.113636
318.400757	1247.245483	4400.504395	2664.049561	44.931423
318.769684	1247.319702	4424.430176	2674.006348	44.905167
319.138550	1242.415894	4428.367676	2668.285156	44.754894
319.507416	1246.428101	4402.956543	2663.678223	44.899014
319.876190	1245.908081	4364.393066	2636.929199	44.605671
320.244995	1257.053345	4297.223145	2617.164795	44.738007
320.613770	1258.911011	4260.443848	2601.858398	44.742054
320.982483	1258.836670	4259.923828	2602.750000	44.780884
321.351166	1257.499390	4304.356934	2619.022461	44.686142
321.719818	1250.812134	4375.167480	2652.235596	44.854801
322.088440	1245.759399	4486.621094	2706.476563	45.071873
322.457062	1252.075195	4640.873535	2775.503906	44.954834
322.825623	1248.062866	4818.457031	2837.323486	44.512192
323.194183	1245.685181	4927.607910	2891.638916	44.703644
323.562653	1232.830688	5006.888672	2914.821289	44.567162
323.931183	1239.072144	5010.083496	2919.651123	44.565739
324.299591	1244.421997	4994.703125	2903.973389	44.251385
324.668060	1246.353882	4925.304688	2872.840576	44.210613
325.036407	1242.861694	4873.738281	2845.348389	44.134983
325.404755	1250.812012	4804.934082	2816.444580	44.051174
325.773102	1249.623169	4740.810547	2789.621338	44.111012
326.141388	1254.006958	4652.019043	2752.916016	44.111351
326.509674	1253.041016	4567.610840	2709.077393	43.928368
326.877899	1248.137085	4491.822266	2665.164307	43.685722
327.246124	1249.846069	4442.633789	2633.065674	43.323257
327.614288	1248.731567	4409.123047	2614.192627	43.205441
327.982422	1259.728394	4396.789063	2621.548828	43.410717
328.350525	1261.437256	4411.054688	2637.449463	43.688232
328.718628	1259.282471	4458.163086	2656.767822	43.686699
329.086700	1260.917114	4509.060547	2671.554443	43.429031
329.454712	1258.539429	4551.784668	2691.170166	43.502098
329.822693	1254.750000	4589.827637	2703.281738	43.433224
330.190674	1253.041138	4632.254395	2721.857178	43.466213
330.558563	1248.359985	4672.304199	2737.906494	43.503819
330.926483	1248.805786	4745.120117	2756.036377	43.109127
331.294312	1240.483887	4834.135254	2777.510010	42.770596
331.662231	1241.598511	4938.456055	2821.719971	42.742287
332.029999	1242.638672	5027.768066	2859.465820	42.715240
332.397766	1249.325806	5094.714844	2898.920654	42.897995
332.765503	1245.908081	5138.851074	2904.864990	42.614468
333.133240	1248.285645	5157.426270	2926.784180	42.937790
333.500916	1246.651001	5151.853516	2920.839844	42.870728
333.868561	1251.926514	5152.373535	2911.477783	42.547718
334.236176	1251.406372	5127.259277	2889.781494	42.271343
334.603790	1245.610840	5102.145020	2870.462891	42.132442
334.971344	1240.186646	5072.126465	2859.242920	42.251610
335.338867	1233.648071	5047.829590	2851.218506	42.409370
335.706360	1235.208374	5034.380859	2850.846680	42.526058
336.073853	1239.815308	5040.622559	2858.277344	42.582062
336.441284	1236.694580	5068.931641	2868.456787	42.579887
336.808655	1239.295166	5103.854004	2883.837158	42.554455
337.176086	1240.335327	5131.419922	2901.149658	42.682556
337.543396	1252.297974	5159.878418	2906.573975	42.335045
337.910706	1256.607544	5169.314453	2898.028564	41.951035
338.277954	1260.174194	5176.001953	2888.295166	41.577953
338.645264	1260.842896	5140.856934	2885.546143	41.873642
339.012421	1255.864624	5103.333984	2871.428711	41.990307
339.379669	1252.595215	5020.040527	2839.478516	42.120937
339.746796	1248.508545	4962.901855	2789.546875	41.488293
340.113953	1248.954468	4892.388184	2765.696045	41.629456
340.481018	1248.805664	4858.654785	2741.918945	41.362209
340.848114	1249.697388	4832.574707	2743.925049	41.704681
341.215118	1247.468384	4872.623535	2757.299561	41.648731
341.582153	1251.109131	5001.019043	2827.589844	42.040497
341.949066	1251.406372	5185.141602	2903.304443	41.993118
342.316010	1257.276367	5433.906738	2996.182861	41.634197
342.682922	1249.103027	5685.271973	3071.526123	41.081013
343.049835	1244.867798	6012.130371	3194.125244	40.888401
343.416656	1240.409546	6306.963379	3313.232422	40.911888
343.783478	1243.901855	6538.564941	3423.943604	41.174324
344.150269	1242.638672	6650.093750	3478.333008	41.344669
344.516998	1246.576660	6658.489746	3491.261719	41.476738
344.883728	1246.130859	6581.884277	3454.630859	41.390594
345.250427	1253.709839	6456.980469	3404.699219	41.339176
345.617065	1247.914185	6312.759277	3346.148682	41.427414
345.983704	1251.034912	6167.869141	3290.793701	41.485207
346.350281	1252.297974	6040.885254	3238.781250	41.483700
346.716827	1256.756226	5904.094238	3185.431885	41.500656
347.083405	1251.926636	5820.578125	3149.321045	41.530735
347.449860	1247.022583	5760.095703	3124.875244	41.609177
347.816376	1243.084473	5749.024902	3120.417236	41.663506
348.182770	1250.291870	5735.946777	3129.110596	41.885048
348.549194	1253.561157	5767.451172	3142.782227	41.853500
348.915558	1254.601440	5844.429199	3169.233643	41.714687
349.281921	1250.960571	5929.728516	3200.218018	41.661766
349.648193	1244.347656	5985.307129	3219.611084	41.663792
350.014526	1246.874023	6012.204590	3232.317139	41.664330
350.380737	1254.601440	6037.765137	3244.874268	41.609966
350.746948	1257.796387	6064.736328	3265.233154	41.761219
351.113159	1254.601440	6123.138672	3291.313477	41.834167
351.479309	1237.140259	6198.184082	3315.239014	41.888332
351.845428	1243.901978	6339.210938	3365.393311	41.636162
352.211517	1247.542847	6452.447754	3425.281250	41.840118
352.577576	1255.047363	6588.719238	3489.776123	41.898506
352.943604	1248.582886	6718.451660	3546.097412	42.003105
353.309601	1246.353882	6873.893066	3614.678711	42.084553
353.675537	1252.298096	7036.467285	3678.950439	41.953346
354.041473	1248.285767	7189.457031	3739.433350	41.930241
354.407379	1243.307495	7297.790527	3782.305908	41.935844
354.773254	1236.174316	7427.375000	3844.868896	42.135521
355.139038	1240.186768	7566.023438	3915.307617	42.288807
355.504913	1251.926636	7827.346191	4016.582031	42.045307
355.870636	1251.480835	8092.160645	4146.537598	42.321182
356.236389	1250.812012	8382.089844	4272.332031	42.369965
356.602081	1237.586060	8659.165039	4378.064941	42.315510
356.967804	1235.505615	8859.187500	4431.785645	41.925674
357.333405	1242.118530	8955.930664	4468.937012	41.831696
357.699036	1248.211426	8933.194336	4473.989746	41.975086
358.064606	1257.722168	8878.877930	4464.999512	42.083870
358.430176	1254.155640	8834.593750	4442.931152	42.065845
358.795654	1262.774658	8892.624023	4455.934082	41.850883
359.161163	1258.316528	9070.430664	4538.484375	41.988224
359.526581	1251.629272	9420.991211	4689.096191	42.077545
359.892029	1246.948242	9933.977539	4913.193359	42.203671
360.257416	1245.982300	10515.841797	5136.101563	41.965244
360.622772	1249.846069	11021.247070	5340.953613	41.868176
360.988098	1244.273315	11325.739258	5475.292969	41.968296
361.353394	1247.468384	11418.247070	5530.796875	42.114071
361.718658	1248.880127	11229.742188	5455.082520	42.142673
362.083893	1250.291870	10800.941406	5284.855957	42.243870
362.449097	1243.530273	10185.937500	5042.777344	42.485729
362.814209	1241.226929	9547.528320	4789.999023	42.723850
363.179382	1241.449829	8957.192383	4545.617188	42.823711
363.544434	1246.799683	8545.926758	4353.768066	42.566299
363.909546	1252.595215	8267.663086	4232.357422	42.476597
364.274536	1259.282593	8089.263184	4155.305664	42.401630
364.639587	1258.911133	7943.554688	4087.169678	42.309788
365.004517	1248.582886	7856.769531	4046.749023	42.343933
365.369507	1242.341431	7804.312012	4008.631836	42.156399
365.734344	1245.164917	7811.370605	4015.988037	42.198242
366.099274	1254.304199	7800.299316	4015.467529	42.180958
366.464081	1255.047241	7775.333496	4013.610107	42.307392
366.828918	1254.378418	7686.765137	3989.610352	42.522816
367.193665	1247.839844	7615.285645	3958.106201	42.564419
367.558411	1249.846069	7542.915527	3924.075439	42.494835
367.923126	1244.942017	7459.622559	3876.521484	42.344566
368.287781	1249.920410	7408.576172	3841.153320	42.074650
368.652435	1247.988525	7378.557129	3812.621094	41.833519
369.017059	1251.406372	7424.922363	3821.834961	41.636383
369.381653	1246.725342	7456.353027	3829.785156	41.597660
369.746185	1249.697388	7529.614746	3851.035889	41.423130
370.110687	1246.428101	7614.766113	3862.924561	41.086021
370.475220	1242.935913	7698.728027	3897.920898	41.125626
370.839661	1244.719116	7742.937500	3931.877197	41.352230
371.204041	1245.090698	7772.361816	3953.573486	41.494873
371.568451	1247.394165	7769.166504	3943.914063	41.346428
371.932770	1238.403442	7767.160645	3924.521240	41.142864
372.297150	1239.295166	7715.223145	3911.889404	41.269672
372.661377	1236.991821	7748.213379	3907.059814	41.007172
373.025696	1244.942139	7785.513184	3908.322998	40.720921
373.389862	1244.867798	7876.162598	3921.994873	40.371105
373.754059	1247.988403	7944.595215	3967.690674	40.613136
374.118225	1248.359985	8044.309082	4009.003174	40.621891
374.482361	1249.251587	8193.879883	4083.305908	40.809299
374.846436	1254.155640	8406.015625	4157.088379	40.589897
375.210510	1248.582886	8727.746094	4265.050293	40.331615
375.574524	1248.211304	9053.860352	4382.151367	40.149639
375.938538	1247.468384	9388.074219	4487.363770	39.799194
376.302460	1244.050415	9648.357422	4581.877441	39.715675
376.666412	1245.536621	9811.377930	4598.000977	39.137592
377.030304	1243.530396	9796.962891	4591.610840	39.143124
377.394196	1250.960571	9651.701172	4526.596191	38.992226
377.757996	1254.750000	9408.434570	4440.702148	39.073772
378.121796	1247.319702	9112.040039	4317.210938	39.033699
378.485565	1239.889404	8825.974609	4195.280273	38.958050
378.849304	1234.614014	8622.384766	4108.940918	38.906555
379.212982	1242.044312	8499.116211	4052.767578	38.730816
379.576630	1244.421997	8433.953125	4013.833008	38.520050
379.940277	1247.542603	8413.668945	3993.919922	38.324436
380.303864	1251.183472	8401.038086	3976.681641	38.119629
380.667450	1257.127808	8418.870117	3986.043701	38.104080
381.030945	1255.493164	8415.452148	3977.201416	38.012901
381.394501	1254.081299	8492.503906	3975.343750	37.594688
381.757935	1255.864624	8557.815430	3976.384033	37.257435
382.121399	1251.629272	8644.006836	3986.786377	36.999695
382.484741	1252.966797	8782.209961	4051.281250	37.165947
382.848145	1252.149414	8924.648438	4115.330078	37.317448
383.211487	1253.189819	9072.659180	4163.775391	37.222290
383.574768	1253.709839	9137.155273	4174.475098	37.049347
383.938019	1252.297974	9181.364258	4163.775879	36.719051
384.301270	1256.830566	9196.374023	4169.497559	36.685574
384.664459	1257.276245	9219.184570	4162.066895	36.483597
385.027649	1254.824341	9235.234375	4169.125488	36.518188
385.390778	1248.137207	9340.892578	4187.181152	36.316975
385.753876	1249.474609	9420.024414	4230.945801	36.490459
386.116943	1251.257813	9535.491211	4258.586426	36.301834
386.479980	1252.446655	9572.715820	4264.679199	36.203545
386.842987	1249.251587	9623.391602	4228.270996	35.574036
387.205994	1252.372437	9631.787109	4219.354492	35.407986
387.568909	1252.743896	9621.385742	4206.500488	35.295532
387.931793	1250.663452	9562.538086	4187.924316	35.338123
388.294678	1248.211426	9519.813477	4150.847656	35.091587
388.657471	1253.784180	9495.887695	4120.605957	34.782646
389.020294	1258.539551	9545.595703	4144.680176	34.827091
389.383057	1257.053467	9703.415039	4199.069824	34.831760
389.745819	1250.366211	9918.299805	4264.827637	34.777164
390.108521	1247.617065	10178.582031	4329.842285	34.511669
390.471191	1248.805786	10465.686523	4415.364746	34.356083
390.833801	1251.777954	10704.420898	4467.599609	34.020348
391.196442	1248.657227	10865.508789	4510.323730	33.916157
391.558960	1247.839966	10885.497070	4503.710938	33.782806
391.921509	1246.502441	10839.726563	4474.732910	33.651150
392.284027	1241.970093	10792.395508	4431.488770	33.396610
392.646484	1239.815308	10765.201172	4384.157715	33.010132
393.008911	1238.626465	10738.674805	4375.687012	33.021519
393.371307	1245.685059	10743.875977	4351.093262	32.694733
393.733673	1241.895630	10714.824219	4314.981934	32.440723
394.096008	1249.548828	10638.514648	4290.165527	32.385002
394.458344	1246.799683	10508.633789	4236.369629	32.278378
394.820587	1250.737793	10270.270508	4154.562500	32.194843
395.182831	1250.366333	10065.195313	4062.798584	31.905691
395.545013	1248.805786	9788.937500	3982.625732	32.011448
395.907196	1246.205200	9622.945313	3922.589111	31.950182
396.269287	1243.381714	9517.138672	3870.280273	31.749765
396.631409	1250.291870	9491.652344	3836.621094	31.382309
396.993469	1255.864624	9469.063477	3811.729736	31.118998
397.355530	1254.898682	9478.277344	3793.228271	30.867233
397.717499	1251.777954	9524.643555	3774.578125	30.494879
398.079468	1249.103027	9549.906250	3778.961914	30.477280
398.441376	1248.582886	9528.358398	3766.701904	30.412891
398.803284	1244.942017	9478.797852	3745.080078	30.364124
399.165131	1238.700684	9482.586914	3719.520264	30.092840
399.526978	1240.484009	9509.781250	3703.842041	29.789206
399.888763	1249.400269	9526.277344	3685.712158	29.435160
400.250519	1261.585938	9504.358398	3666.839111	29.180147
400.612244	1265.003784	9512.383789	3648.486328	28.899874
400.973938	1263.889282	9582.971680	3660.969482	28.814238
401.335602	1257.499268	9702.152344	3672.560547	28.598703
401.697205	1253.115356	9870.893555	3700.720947	28.401815
402.058807	1241.449951	10025.962891	3738.243896	28.422680
402.420349	1239.146606	10268.264648	3792.782227	28.282228
402.781860	1239.443726	10481.959961	3839.444336	28.130871
403.143341	1241.301147	10696.545898	3896.137451	28.077923
403.504822	1241.375488	10853.101563	3944.359619	28.121733
403.866241	1240.929688	10996.208008	3961.226563	27.885386
404.227631	1242.118530	11115.687500	3949.263672	27.418098
404.588959	1246.502441	11149.867188	3916.867920	26.964224
404.950287	1247.839966	11067.984375	3909.289063	27.101934
405.311554	1254.155640	10983.502930	3852.967773	26.711061
405.672821	1255.790161	10861.645508	3815.296631	26.645273
406.034027	1260.397095	10753.089844	3741.662109	26.138687
406.395203	1252.297974	10558.788086	3687.272461	26.164263
406.756348	1246.502441	10455.210938	3629.687744	25.879690
407.117493	1245.239258	10406.913086	3590.753174	25.601370
407.478516	1253.784058	10458.553711	3582.357178	25.297464
407.839600	1260.025513	10495.780273	3582.654297	25.148230
408.200592	1257.499146	10620.831055	3598.629150	25.003170
408.561554	1255.790283	10773.151367	3629.316406	24.938910
408.922485	1252.892578	10947.835938	3652.944580	24.755709
409.283417	1250.886353	11035.217773	3664.238525	24.665478
409.644257	1248.731567	11119.476563	3668.473877	24.514280
410.005096	1251.332153	11194.448242	3666.467773	24.289526
410.365906	1250.812134	11206.708008	3639.570313	23.993404
410.726715	1254.155762	11163.315430	3618.393799	23.859116
411.087433	1256.533325	11074.152344	3585.329102	23.720577
411.448120	1256.904785	11006.239258	3568.016357	23.705328
411.808807	1253.041016	10968.940430	3527.075928	23.405294
412.169434	1251.480713	10950.140625	3495.719971	23.139683
412.530029	1255.715942	11024.815430	3490.147461	22.872442
412.890564	1261.957397	11142.288086	3478.556396	22.434462
413.251099	1258.390991	11296.614258	3491.930908	22.250351
413.611572	1257.647827	11460.971680	3523.137939	22.203453
413.972076	1252.372314	11598.655273	3558.134521	22.285898
414.332489	1248.062866	11701.043945	3575.447021	22.265268
414.692871	1246.130981	11906.639648	3588.821533	21.975409
415.053223	1241.226929	12089.944336	3602.641846	21.766766
415.413574	1247.171265	12404.987305	3642.691162	21.469435
415.773834	1243.158813	12597.133789	3663.050049	21.313164
416.134094	1241.672729	12895.905273	3722.492188	21.286854
416.494263	1242.192749	13157.674805	3760.014893	21.130678
416.854462	1256.533325	13571.688477	3817.674072	20.796658
417.214630	1266.118286	13996.700195	3872.212158	20.471128
417.574738	1261.882935	14460.350586	3940.793701	20.297134
417.934784	1250.143188	14940.569336	4024.978271	20.268435
418.294861	1244.867676	15489.518555	4102.401855	20.060402
418.654846	1245.239258	16104.668945	4193.719238	19.842484
419.014832	1246.651001	16730.000000	4292.245117	19.670126
419.374756	1249.771729	17380.373047	4401.247070	19.537247
419.734680	1257.276245	18072.353516	4531.500000	19.471951
420.094543	1255.641724	18675.097656	4616.799805	19.295427
420.454376	1253.784180	19024.765625	4656.402832	19.147051
420.814148	1246.056641	19215.279297	4650.607422	18.946568
421.173920	1245.759399	19328.291016	4658.780762	18.874689
421.533691	1241.524170	19451.486328	4669.480469	18.824619
421.893341	1245.462280	19458.767578	4643.994141	18.659611
422.253021	1248.434204	19398.880859	4595.325684	18.439720
422.612640	1248.211426	19316.181641	4550.744141	18.278381
422.972260	1245.090698	19353.630859	4529.048340	18.134853
423.331757	1244.421997	19483.882813	4527.933594	18.002241
423.691315	1246.948242	19673.353516	4535.438477	17.846617
424.050781	1245.536499	19659.978516	4509.655273	17.725863
424.410248	1248.657227	19441.751953	4448.727051	17.589476
424.769653	1256.013184	19108.429688	4377.619141	17.485622
425.128998	1256.087524	18733.722656	4304.430664	17.441395
425.488373	1246.428101	18267.843750	4211.626465	17.420397
425.847656	1238.849243	17824.554688	4109.163574	17.305954
426.206940	1238.923462	17377.029297	4006.477295	17.149185
426.566193	1247.394043	17001.501953	3928.013428	17.015368
426.925385	1251.480713	16565.716797	3835.506592	16.873358
427.284576	1249.846069	16153.262695	3743.371094	16.731230
427.643677	1247.914185	15820.164063	3659.483398	16.549053
428.002777	1242.935913	15626.976563	3607.322510	16.437569
428.361847	1245.833618	15459.870117	3560.809326	16.286547
428.720856	1238.403442	15258.362305	3515.261719	16.240122
429.079865	1239.592285	15094.895508	3473.057617	16.119932
429.438812	1239.146484	15031.664063	3448.760742	16.020384
429.797760	1244.867676	15015.688477	3421.640381	15.807139
430.156616	1249.548828	14889.596680	3389.392822	15.687951
430.515503	1251.926514	14782.006836	3350.383789	15.509570
430.874268	1258.167969	14759.195313	3344.068115	15.449937
431.233093	1254.601440	14876.221680	3341.987549	15.324067
431.591827	1246.799683	15062.721680	3366.878906	15.345187
431.950562	1237.140259	15216.975586	3375.572266	15.296548
432.309204	1238.849365	15356.441406	3374.383545	15.126760
432.667877	1248.062866	15523.696289	3375.869873	14.905168
433.026459	1250.217529	15619.546875	3374.755127	14.785225
433.385010	1245.387817	15707.668945	3383.151611	14.781650
433.743561	1244.719116	15695.706055	3369.628174	14.704249
434.102051	1243.976074	15716.213867	3351.944580	14.565601
434.460510	1255.270142	15720.078125	3339.535889	14.409218
434.818939	1257.722046	15681.812500	3328.018799	14.353049
435.177338	1260.619995	15659.149414	3313.975586	14.260869
435.535675	1257.424927	15620.808594	3295.251221	14.187648
435.894012	1252.297974	15646.815430	3286.186523	14.129605
436.252289	1249.697510	15796.906250	3297.852295	14.079366
436.610535	1249.994629	15897.734375	3295.251221	13.962950
436.968719	1252.372314	16186.402344	3320.142822	13.846031
437.326935	1252.075073	16484.654297	3337.975586	13.693678
437.685028	1247.096802	16818.568359	3376.167236	13.672891
438.043152	1242.044189	17039.693359	3384.637695	13.562737
438.401215	1240.260864	17339.580078	3400.464111	13.417978
438.759277	1244.644897	17734.646484	3430.928467	13.258238
439.117249	1251.703613	18298.976563	3487.992432	13.118161
439.475250	1255.715942	18699.021484	3528.933594	13.032036
439.833130	1252.446655	19135.701172	3567.645264	12.946183
440.191071	1254.081421	19267.585938	3575.818359	12.888868
440.548889	1256.013184	19354.521484	3578.716064	12.833671
440.906708	1260.396973	19236.972656	3552.858643	12.752493
441.264496	1260.397095	19031.378906	3516.227783	12.693899
441.622223	1263.963623	18786.775391	3472.017578	12.601025
441.979950	1263.517822	18494.023438	3423.052490	12.533205
442.337616	1256.310425	18302.023438	3380.550781	12.462021
442.695251	1250.886353	18057.345703	3343.994141	12.454187
443.052887	1245.313599	17951.091797	3311.969482	12.370905
443.410461	1248.434326	18015.509766	3310.928955	12.300860
443.768005	1243.679077	18256.625000	3323.560547	12.225286
444.125458	1245.164917	18570.775391	3355.139404	12.178356
444.482941	1247.691284	18958.189453	3375.944092	12.016900
444.840393	1259.282593	19492.724609	3418.222412	11.840551
445.197754	1262.403198	19945.525391	3455.893799	11.740493
445.555084	1253.635376	20312.505859	3485.391846	11.709804
445.912415	1244.496216	20523.230469	3493.268311	11.664521
446.269714	1250.291870	20683.054688	3495.199951	11.552182
446.626953	1260.174194	20684.615234	3497.057617	11.515818
446.984161	1259.282471	20516.021484	3477.144531	11.517330
447.341309	1251.629272	20271.937500	3440.810547	11.509704
447.698456	1245.462280	19946.861328	3391.770752	11.476727
448.055542	1251.183472	19719.646484	3351.350342	11.371639
448.412598	1252.743774	19363.734375	3298.966797	11.298240
448.769653	1252.966675	19047.947266	3257.134033	11.262543
449.126617	1252.223755	18586.898438	3196.057373	11.213557
449.483582	1253.338379	18259.298828	3147.909180	11.140628
449.840515	1252.520996	17921.296875	3093.148193	11.042366
450.197388	1251.926636	17699.427734	3062.015381	11.005250
450.554230	1249.326050	17601.126953	3036.380615	10.928794
450.911041	1250.737671	17560.927734	3022.931641	10.865562
451.267822	1240.929688	17654.773438	3015.947510	10.814151
451.624573	1239.740845	17689.472656	3022.857422	10.839790
451.981262	1235.134155	17668.814453	3006.287842	10.777584
452.337921	1246.502441	17487.888672	2983.031250	10.691998
452.694580	1240.781250	17152.634766	2928.939209	10.609436
453.051147	1250.812012	16908.177734	2898.177734	10.521347
453.407715	1251.926514	16541.939453	2849.435303	10.448054
453.764221	1259.876953	16433.011719	2825.286865	10.316984
454.120728	1255.567383	16111.281250	2778.847412	10.253833
454.477142	1258.167969	16022.340820	2761.237549	10.180520
454.833557	1261.140137	15867.867188	2755.367920	10.229724
455.189911	1258.242310	15871.656250	2745.411133	10.176738
455.546265	1251.183594	15969.140625	2744.222412	10.144335
455.902557	1252.000854	16033.414063	2723.863281	9.957521
456.258820	1256.681885	16287.082031	2743.925049	9.894900
456.615051	1263.666382	16556.875000	2755.293701	9.753528
456.971252	1265.969727	16917.763672	2786.054932	9.711891
457.327393	1256.979126	17501.412109	2835.391846	9.716638
457.683502	1254.081421	18184.994141	2898.029297	9.709742
458.039612	1245.982300	19151.599609	2973.669189	9.648854
458.395630	1254.675659	20081.574219	3059.711670	9.587538
458.751648	1249.994629	20897.044922	3130.670898	9.572309
459.107605	1247.765503	21627.365234	3192.713623	9.543603
459.463562	1244.496216	21835.935547	3204.378906	9.517949
459.819458	1243.976074	21726.931641	3184.837158	9.475493
460.175323	1251.406372	21124.337891	3125.469727	9.430231
460.531158	1250.812012	20404.939453	3038.610107	9.333749
460.886932	1258.539429	19627.287109	2949.223389	9.204133
461.242676	1250.291870	18891.392578	2878.710205	9.230820
461.598419	1252.743774	18337.615234	2829.224609	9.227350
461.954102	1246.651001	17802.560547	2774.092041	9.225956
462.309723	1252.520874	17331.109375	2721.485840	9.136156
462.665344	1258.836670	16943.472656	2675.566650	9.032598
463.020905	1254.304199	16746.869141	2660.334717	9.075519
463.376373	1247.765503	16744.638672	2652.830078	9.066762
463.731873	1235.431274	16764.476563	2648.669189	9.100611
464.087341	1237.066162	16807.720703	2641.535889	9.019979
464.442749	1244.050659	16906.916016	2644.508057	8.941259
464.798126	1248.805908	17034.494141	2646.068604	8.851453
465.153503	1255.047241	17222.998047	2646.068604	8.711332
465.508820	1255.195801	17382.824219	2654.167725	8.674380
465.864105	1249.771729	17480.976563	2659.219971	8.683571
466.219330	1238.329102	17697.421875	2682.328125	8.773259
466.574524	1227.555298	17726.845703	2682.402344	8.817634
466.929657	1228.892700	17636.197266	2667.839111	8.770157
467.284790	1236.991699	17456.828125	2643.022217	8.668587
467.639893	1243.307495	17228.201172	2609.288818	8.545451
467.994934	1240.558228	17074.171875	2585.585938	8.494761
468.349945	1237.586304	16829.642578	2559.654053	8.479111
468.704926	1237.957642	16687.500000	2554.230225	8.519816
469.059875	1239.443726	16530.498047	2543.827881	8.530374
469.414764	1241.672729	16466.003906	2536.174805	8.502851
469.769653	1241.969971	16412.505859	2519.753662	8.422798
470.124451	1244.199097	16493.568359	2504.893311	8.267189
470.479248	1245.908081	16523.662109	2499.172119	8.203196
470.834015	1250.217529	16594.767578	2499.246582	8.139887
471.188721	1251.555054	16795.906250	2516.038818	8.134684
471.543365	1250.217529	17069.416016	2527.852783	8.076486
471.898010	1241.152588	17352.064453	2535.506104	8.034018
472.252625	1244.793457	17588.716797	2542.341797	7.939026
472.607178	1236.768799	17799.068359	2558.911377	7.982845
472.961700	1239.443726	17862.447266	2568.347656	7.994367
473.316193	1239.666626	17940.169922	2574.217529	7.991082
473.670654	1253.189575	17961.345703	2562.254883	7.834888
474.025055	1255.121460	18098.435547	2549.475098	7.684673
474.379456	1251.852173	18159.363281	2548.211914	7.667360
474.733795	1241.895630	18269.404297	2551.927002	7.693618
475.088104	1243.678833	18545.513672	2577.932861	7.711634
475.442383	1253.115234	18882.998047	2600.743896	7.644002
475.796570	1253.263916	19190.759766	2636.557861	7.711745
476.150787	1244.867798	19580.921875	2659.963135	7.717556
476.504944	1231.790405	19960.607422	2683.145508	7.749316
476.859070	1235.282715	20361.396484	2696.148682	7.638070
477.213135	1242.861694	20637.951172	2700.012451	7.512988
477.567200	1249.697388	20909.232422	2710.563232	7.430826
477.921173	1253.263916	21158.888672	2711.975098	7.328135
478.275146	1253.784180	21393.312500	2725.200928	7.306114
478.629089	1256.310303	21668.531250	2745.708252	7.296599
478.983002	1250.886230	22130.546875	2773.720703	7.293387
479.336823	1248.954468	22651.037109	2815.627197	7.320189
479.690643	1242.490112	23352.603516	2852.852783	7.283376
480.044403	1246.428101	24246.240234	2909.768799	7.231975
480.398163	1246.279541	25445.265625	2983.031250	7.176960
480.751862	1247.617065	27115.216797	3077.321289	7.073344
481.105499	1247.691284	29357.822266	3220.354248	7.017623
481.459137	1248.657227	32655.525391	3440.438721	6.978670
481.812744	1246.873901	37012.121094	3740.027344	6.970882
482.166290	1247.839844	42177.199219	4095.863037	6.958387
482.519806	1245.982300	47278.675781	4475.698730	7.016136
482.873291	1249.846069	51445.269531	4828.562500	7.129567
483.226715	1252.669556	54138.000000	5104.448242	7.283265
483.580139	1254.601440	55107.875000	5213.153320	7.350624
483.933502	1255.715942	54493.839844	5154.008301	7.322370
484.286804	1251.480835	52532.843750	4926.716309	7.166805
484.640106	1253.041016	49733.484375	4653.579590	7.014248
484.993347	1253.486938	46826.984375	4405.854004	6.917106
485.346558	1256.904907	44675.324219	4245.062988	6.882236
485.699738	1250.663452	43699.281250	4160.283203	6.854451
486.052887	1250.737793	43888.457031	4154.339355	6.809937
486.405975	1242.490112	44789.082031	4199.886719	6.791338
486.759064	1247.096802	45903.175781	4270.177246	6.769696
487.112061	1244.124634	46471.074219	4289.719238	6.734026
487.464996	1251.777832	46198.980469	4263.638672	6.700886
487.817963	1256.681763	44921.792969	4164.296387	6.658897
488.170868	1256.830444	43077.375000	4039.021484	6.652689
488.523743	1253.263916	40840.121094	3876.373047	6.626213
488.876587	1248.731445	38910.253906	3726.132813	6.578070
489.229401	1254.081177	37600.222656	3619.136719	6.507034
489.582153	1256.161743	37364.312500	3580.202393	6.436332
489.934845	1256.161743	37990.238281	3612.672607	6.415053
490.287537	1261.288696	39260.664063	3689.279053	6.389553
490.640198	1264.260620	40621.292969	3776.658936	6.383607
490.992798	1260.025391	41356.371094	3814.181641	6.370048
491.345337	1244.050415	41163.707031	3796.274658	6.393402
491.697876	1234.391113	39805.300781	3714.021484	6.428758
492.050354	1243.976196	37794.453125	3589.416016	6.416989
492.402832	1258.613647	35130.031250	3415.993408	6.369323
492.755219	1269.684814	32380.755859	3240.490234	6.334740
493.107605	1262.700317	29854.015625	3089.878906	6.390677
493.459930	1254.378540	27942.650391	2960.592041	6.393121
493.812225	1251.926514	26629.500000	2869.942627	6.375772
494.164490	1256.979126	25831.193359	2799.949219	6.278818
494.516724	1258.762329	25434.267578	2765.993164	6.234537
494.868896	1250.812012	25416.656250	2751.132080	6.208432
495.221039	1249.251587	25633.177734	2754.624268	6.173627
495.573120	1250.812012	25893.531250	2766.141357	6.149197
495.925201	1261.808716	26186.583984	2783.305420	6.104355
496.277222	1261.883179	26423.531250	2787.763672	6.064311
496.629211	1259.133911	26528.896484	2782.710938	6.029250
496.981140	1251.703613	26411.498047	2767.330322	6.024003
497.333069	1255.270142	26056.478516	2747.714844	6.017629
497.684967	1247.691284	25622.552734	2725.275391	6.061918
498.036804	1244.496216	25087.125000	2693.919678	6.079126
498.388580	1241.821411	24592.568359	2668.210693	6.108538
498.740326	1249.846069	24114.203125	2645.697021	6.104921
499.092072	1248.508545	23647.880859	2620.285400	6.124175
499.443756	1245.833618	23216.626953	2585.288818	6.096527
499.795410	1244.124634	22839.541016	2556.608154	6.077602
500.147003	1249.177368	22519.962891	2526.738281	6.006176
500.498566	1251.109253	22217.626953	2506.453857	5.987378
500.850098	1252.892456	22021.916016	2487.952393	5.946644
501.201599	1254.527222	21890.250000	2480.299072	5.940048
501.553009	1254.527222	21842.771484	2479.110352	5.947973
501.904449	1252.520874	21802.423828	2478.441650	5.965580
502.255859	1246.873901	21864.169922	2480.819336	5.985001
502.607178	1243.753174	21926.880859	2479.853271	5.976369
502.958405	1239.815063	22007.796875	2487.803711	6.009195
503.309692	1236.991699	22022.583984	2488.769531	6.022335
503.660919	1238.403442	22146.966797	2488.621094	5.979453
504.012115	1242.638672	22140.798828	2473.314697	5.888920
504.363251	1250.960571	22144.884766	2464.769775	5.809389
504.714294	1251.629395	21995.908203	2457.488281	5.812971
505.065369	1257.945068	21957.568359	2460.906006	5.811512
505.416443	1267.084229	21841.134766	2452.138428	5.759946
505.767395	1271.542480	21802.351563	2451.098389	5.745297
506.118317	1263.517700	21741.496094	2426.578369	5.679568
506.469238	1253.709839	21892.478516	2423.606201	5.668440
506.820160	1254.527100	22043.537109	2428.064209	5.644988
507.170929	1253.041138	22290.818359	2459.048340	5.732579
507.521729	1257.127808	22496.931641	2475.766602	5.737524
507.872498	1249.697388	22754.984375	2479.630371	5.719212
508.223236	1253.858398	23027.750000	2487.878174	5.667429
508.573883	1249.920288	23265.443359	2501.326904	5.684201
508.924500	1257.647827	23507.896484	2518.342041	5.665978
509.275116	1257.053345	23678.197266	2523.468994	5.648310
509.625702	1252.966797	23910.541016	2531.939209	5.644790
509.976196	1252.000854	24030.466797	2535.357422	5.634078
510.326660	1250.886230	24222.835938	2548.731689	5.649697
510.677124	1264.409302	24386.451172	2552.000977	5.568676
511.027557	1258.093628	24634.322266	2558.985596	5.565021
511.377869	1266.861450	24803.361328	2561.734863	5.501554
511.728180	1262.774780	24825.578125	2563.666748	5.520956
512.078430	1262.923340	24799.650391	2564.335693	5.529284
512.428650	1255.790405	24692.654297	2559.580322	5.562988
512.778931	1247.022583	24548.802734	2549.549316	5.589817
513.129028	1249.251587	24353.755859	2532.979736	5.556181
513.479126	1254.824341	24167.849609	2517.153320	5.509220
513.829285	1254.527222	24032.099609	2505.933594	5.494029
514.179382	1254.824341	23919.458984	2499.246338	5.490589
514.529297	1249.251587	23883.125000	2498.280518	5.518405
514.879272	1247.394043	23994.726563	2501.401123	5.512765
515.229187	1245.536499	24138.279297	2511.803467	5.531303
515.579163	1245.239258	24565.890625	2528.372803	5.502134
515.928955	1248.359985	25105.476563	2555.567627	5.479320
516.278748	1248.657227	25856.453125	2589.078125	5.447139
516.628540	1251.406372	26615.677734	2620.211182	5.396586
516.978333	1255.418823	27507.460938	2667.913330	5.380513
517.327942	1255.864624	28407.119141	2713.906982	5.370074
517.677612	1257.647827	29184.326172	2744.890869	5.325528
518.027222	1258.093628	29651.986328	2757.968018	5.282384
518.376831	1255.715942	29800.888672	2757.299561	5.260377
518.726379	1248.805908	29587.494141	2749.126221	5.294248
519.075867	1245.165039	29020.115234	2715.690186	5.294430
519.425293	1247.542847	28275.826172	2683.888672	5.314232
519.774658	1249.846069	27500.404297	2655.876465	5.356192
520.124084	1252.000854	26850.476563	2627.269775	5.372464
520.473389	1251.035034	26358.146484	2592.793457	5.344137
520.822693	1251.109253	26057.369141	2564.781250	5.295728
521.171997	1244.347656	25904.603516	2555.344727	5.316235
521.521240	1240.706909	25890.115234	2550.515137	5.313751
521.870361	1236.917358	25969.765625	2552.298584	5.318357
522.219482	1238.106323	26175.509766	2553.561523	5.275029
522.568604	1243.307495	26469.005859	2560.249023	5.220634
522.917664	1249.474731	26907.912109	2578.156006	5.178340
523.266724	1256.013306	27573.146484	2620.582764	5.185099
523.615662	1258.019409	28453.333984	2673.634766	5.205365
523.964600	1260.917236	29579.466797	2737.609375	5.214576
524.313538	1263.443481	30792.978516	2802.698486	5.212595
524.662354	1255.641724	32131.765625	2866.598877	5.217485
525.011169	1256.533325	33444.250000	2937.260986	5.221643
525.359985	1251.183472	34770.035156	2992.690674	5.195605
525.708740	1261.363037	36142.183594	3063.575439	5.166772
526.057434	1250.514893	37824.097656	3143.005127	5.174473
526.406067	1247.839966	39926.792969	3257.505859	5.195761
526.754700	1239.889526	42777.562500	3401.281250	5.203449
527.103333	1248.508667	46056.542969	3577.898682	5.198599
527.451782	1246.576782	49562.589844	3780.447998	5.244371
527.800293	1250.366333	52148.699219	3953.424805	5.310702
528.148743	1246.874023	53610.750000	4057.522705	5.367534
528.497131	1254.081299	53559.925781	4056.631104	5.358005
528.845642	1250.143188	52255.390625	3947.183350	5.287770
529.193909	1246.799683	49807.265625	3778.516357	5.213535
529.542175	1246.502441	46423.519531	3579.756592	5.164693
529.890503	1245.462280	42848.816406	3395.634033	5.168265
530.238770	1247.171143	39608.550781	3231.573975	5.172918
530.586914	1243.381714	37406.964844	3116.627686	5.179924
530.934998	1246.576782	36253.558594	3053.172852	5.160674
531.283142	1239.072266	36207.042969	3039.427002	5.148582
531.631226	1237.883423	36926.816406	3065.135742	5.119941
531.979248	1228.966919	38191.453125	3130.076416	5.143349
532.327148	1240.484009	39443.378906	3189.815674	5.102576
532.675110	1241.747192	40369.265625	3243.908203	5.117015
533.023071	1252.372437	40571.289063	3245.839844	5.069995
533.370850	1249.994507	39916.832031	3223.029053	5.102653
533.718689	1256.087402	38631.472656	3137.506836	5.033846
534.066467	1253.784058	36898.730469	3059.117188	5.064766
534.414246	1255.270142	35308.800781	2958.288818	5.001005
534.761963	1256.904785	34026.332031	2899.738281	5.013312
535.109619	1260.174072	33406.949219	2859.986084	4.976586
535.457153	1260.322754	33177.875000	2851.218018	4.984390
535.804749	1251.852173	33210.792969	2845.868408	4.987700
536.152344	1247.394165	33158.035156	2843.490967	5.001770
536.499817	1244.942139	32850.050781	2833.980225	5.027789
536.847229	1246.353882	32157.025391	2798.834961	5.022476
537.194641	1253.858398	31208.107422	2751.281250	4.999033
537.542114	1256.161743	30266.841797	2701.201172	4.981060
537.889404	1254.824341	29612.382813	2663.306641	4.966867
538.236694	1248.211426	29273.341797	2625.189209	4.913368
538.583984	1244.570679	29430.865234	2632.471191	4.924026
538.931213	1250.589111	30163.265625	2675.715576	4.929071
539.278381	1258.093628	31669.382813	2759.974609	4.938564
539.625488	1264.335083	33707.503906	2850.252197	4.888293
539.972595	1264.855103	36317.238281	2968.542236	4.860403
540.319641	1266.489746	38767.667969	3081.408203	4.839630
540.666687	1261.511475	40710.015625	3180.156250	4.863669
541.013611	1256.458984	41757.609375	3234.843018	4.884760
541.360596	1251.257813	41828.199219	3246.063232	4.916106
541.707458	1254.452881	41045.937500	3203.635986	4.898493
542.054260	1251.183472	39525.703125	3134.534424	4.920639
542.401062	1250.812012	37709.300781	3043.810791	4.917919
542.747864	1251.777954	35774.457031	2947.291748	4.911304
543.094666	1254.155640	33857.152344	2853.150391	4.904441
543.441284	1250.960571	32077.748047	2767.776367	4.920447
543.787903	1247.765503	30613.833984	2706.773682	4.968347
544.134460	1248.434326	29362.353516	2635.294678	4.933002
544.481079	1250.440552	28484.468750	2580.607910	4.884211
544.827637	1252.000854	27888.710938	2534.168701	4.813537
545.174072	1252.372437	27566.013672	2515.964600	4.802042
545.520508	1252.075195	27459.240234	2516.633057	4.825237
545.866943	1248.805786	27341.541016	2526.366943	4.896234
546.213318	1245.685181	27249.109375	2533.277100	4.951624
546.559631	1248.657227	26931.837891	2517.970703	4.942197
546.905823	1246.353760	26427.546875	2487.209229	4.927707
547.252136	1247.988403	25667.578125	2446.639893	4.908565
547.598389	1243.010132	24776.318359	2407.705322	4.949135
547.944458	1241.747070	23822.119141	2356.956787	4.938846
548.290588	1245.462280	22876.171875	2305.464600	4.900451
548.636658	1242.861694	22007.724609	2266.678711	4.930526
548.982727	1245.685181	21283.939453	2239.409912	4.959138
549.328735	1241.078369	20729.937500	2206.047852	4.951390
549.674622	1245.982300	20311.242188	2178.630127	4.891870
550.020569	1250.514771	20068.197266	2159.534180	4.830667
550.366455	1249.994751	19921.304688	2149.874756	4.819587
550.712280	1253.189697	19910.974609	2153.590088	4.825870
551.058044	1257.424927	19980.669922	2164.066895	4.842334
551.403748	1267.530151	20109.511719	2181.825195	4.852436
551.749512	1265.969727	20292.666016	2192.153320	4.867811
552.095154	1255.715942	20462.523438	2190.964600	4.869360
552.440735	1247.245483	20563.351563	2192.524658	4.893736
552.786316	1245.313599	20558.001953	2177.812744	4.828428
553.131897	1250.291870	20362.289063	2163.620850	4.778825
553.477417	1256.830566	20059.060547	2150.097656	4.750857
553.822815	1263.071899	19630.482422	2137.689209	4.761789
554.168213	1258.242188	19239.650391	2128.550049	4.840043
554.513672	1253.412598	18890.873047	2115.472656	4.887665
554.859009	1246.130981	18620.039063	2095.039551	4.886112
555.204285	1252.223755	18383.013672	2073.045654	4.791501
555.549500	1256.161865	18188.638672	2064.055176	4.771265
555.894714	1260.099854	18051.326172	2053.578369	4.725554
556.239990	1254.824341	17964.169922	2049.417725	4.755383
556.585022	1263.740601	17873.966797	2035.894531	4.648666
556.930115	1264.037842	17757.830078	2034.408569	4.670671
557.275146	1265.375366	17602.462891	2028.910156	4.673628
557.620178	1248.657227	17508.693359	2025.492188	4.777572
557.965149	1252.372437	17403.111328	2012.414917	4.705930
558.310059	1253.486938	17393.376953	2012.192017	4.700807
558.654968	1259.802612	17378.365234	2007.436646	4.638342
558.999756	1249.697388	17416.185547	2013.380859	4.723867
559.344604	1245.016479	17444.642578	2010.854492	4.727504
559.689331	1242.861694	17478.080078	2014.272583	4.751466
560.033997	1241.821411	17521.623047	2009.740112	4.717003
560.378723	1250.514893	17603.578125	2021.925781	4.717226
560.723389	1254.229980	17633.150391	2021.628540	4.685282
561.067932	1253.189697	17696.457031	2030.693359	4.728401
561.412476	1245.759399	17657.447266	2017.838989	4.704450
561.757019	1241.821289	17609.224609	2023.040039	4.773016
562.101501	1241.375610	17520.804688	2020.959595	4.788767
562.445862	1236.025757	17426.068359	2017.913452	4.829435
562.790222	1239.592285	17377.251953	2001.195313	4.719414
563.134644	1248.731567	17366.255859	1999.709106	4.659385
563.478943	1248.582886	17462.476563	2004.612915	4.662853
563.823181	1244.421997	17609.818359	2009.814087	4.676893
564.167358	1237.957642	17818.089844	2017.838989	4.703710
564.511536	1247.914185	18120.798828	2033.219727	4.654246
564.855774	1259.356812	18493.949219	2059.968750	4.645378
565.199768	1269.387695	18876.162109	2077.949951	4.592336
565.543823	1264.632324	19163.119141	2095.336670	4.641199
565.887817	1254.155640	19367.228516	2100.166504	4.670720
566.231812	1244.644897	19368.564453	2103.955811	4.741308
566.575745	1246.205200	19251.091797	2090.729980	4.690531
566.919617	1242.564453	19028.779297	2071.411133	4.660051
567.263428	1247.171265	18732.236328	2052.760986	4.607302
567.607239	1250.514771	18501.525391	2038.049194	4.565150
567.950989	1253.412598	18272.376953	2034.259766	4.588100
568.294678	1248.954468	18184.402344	2028.092773	4.600636
568.638367	1251.257813	18099.548828	2025.194946	4.593565
568.981995	1253.784180	18108.984375	2026.012207	4.581542
569.325623	1258.985352	18176.822266	2025.269165	4.529443
569.669128	1257.202026	18287.013672	2027.201172	4.521478
570.012573	1251.480713	18489.562500	2031.064941	4.522453
570.356140	1248.582886	18772.359375	2051.126709	4.579742
570.699524	1248.731445	19069.570313	2069.405029	4.605134
571.042908	1255.195801	19384.539063	2080.104492	4.550130
571.386230	1256.384766	19561.306641	2074.680664	4.470360
571.729492	1255.938843	19673.429688	2078.767334	4.467647
572.072815	1251.109253	19613.318359	2074.531982	4.484334
572.416016	1249.623169	19512.042969	2065.689941	4.468558
572.759094	1245.387817	19349.244141	2056.402344	4.479789
573.102234	1245.982300	19138.001953	2054.173096	4.517046
573.445374	1251.034912	18966.662109	2053.801514	4.531404
573.788391	1253.858398	18833.808594	2045.776733	4.504668
574.131409	1255.270142	18778.824219	2041.392944	4.486092
574.474365	1246.130981	18721.091797	2032.625366	4.500693
574.817261	1248.137207	18619.740234	2023.337402	4.462456
575.160156	1249.177368	18445.056641	2008.328125	4.414725
575.502930	1248.359985	18195.029297	2000.674927	4.439308
575.845703	1248.805786	17890.609375	1992.724609	4.470182
576.188477	1251.480591	17490.634766	1978.087036	4.474411
576.531250	1259.431030	17103.220703	1960.848999	4.427084
576.873901	1257.127686	16727.177734	1951.932495	4.491290
577.216431	1248.434204	16437.025391	1936.328979	4.529023
577.559082	1247.988403	16096.125000	1927.784180	4.578324
577.901611	1243.604614	15794.307617	1904.378906	4.541184
578.244080	1246.353760	15466.409180	1894.348022	4.556904
578.586487	1250.886230	15246.992188	1879.710327	4.492850
578.928955	1256.607544	15013.011719	1870.719727	4.464191
579.271301	1257.127686	14839.812500	1855.041626	4.402030
579.613647	1249.697388	14628.644531	1854.521484	4.520715
579.955872	1243.307495	14475.135742	1841.815796	4.523247
580.298157	1250.440552	14383.074219	1840.552612	4.493478
580.640320	1243.530396	14329.577148	1827.772583	4.464620
580.982483	1246.725342	14281.280273	1827.029419	4.452044
581.324524	1238.700684	14227.633789	1817.518677	4.456240
581.666626	1250.217529	14175.992188	1816.998657	4.384891
582.008728	1249.251587	14118.184570	1813.803711	4.386938
582.350647	1253.264038	14064.464844	1819.450806	4.419466
582.692566	1248.954468	13987.859375	1815.438354	4.446880
583.034424	1251.703735	13911.327148	1808.528320	4.398429
583.376343	1249.920410	13814.362305	1797.828613	4.360785
583.718201	1247.468384	13761.085938	1788.466431	4.323275
584.059937	1244.942139	13708.851563	1784.305542	4.327402
584.401611	1247.617065	13651.342773	1791.884399	4.387934
584.743347	1253.932739	13630.612305	1791.587280	4.344093
585.085022	1258.985352	13602.674805	1797.085571	4.359314
585.426514	1263.072021	13572.284180	1797.754272	4.343757
585.768127	1258.390991	13533.276367	1804.738770	4.450940
586.109619	1257.722168	13525.102539	1811.797485	4.516655
586.451172	1260.619995	13563.144531	1805.556152	4.429466
586.792542	1264.260864	13598.735352	1793.593384	4.291488
587.133850	1256.607544	13631.875000	1788.020630	4.294154
587.475220	1247.245483	13684.109375	1786.757446	4.338006
587.816589	1243.307373	13768.442383	1801.023560	4.452776
588.157776	1247.616943	13910.583008	1802.658325	4.383186
588.498962	1248.211426	14028.206055	1809.568481	4.392467
588.840210	1246.725464	14103.696289	1817.890259	4.442452
589.181335	1255.121460	14125.096680	1819.376465	4.384274
589.522400	1254.452759	14130.593750	1810.459961	4.318120
589.863403	1261.362915	14091.213867	1794.633667	4.156485
590.204407	1257.722168	14016.761719	1788.317871	4.158587
590.545410	1260.248413	13949.295898	1793.816284	4.204948
590.886353	1254.155640	13831.452148	1791.587280	4.273030
591.227112	1252.446655	13721.854492	1790.992798	4.318939
591.567932	1248.583008	13612.777344	1785.940063	4.346074
591.908752	1251.852173	13563.514648	1783.933960	4.321771
592.249512	1252.223755	13603.340820	1783.191040	4.298941
592.590149	1254.229980	13621.324219	1782.819458	4.274161
592.930786	1253.189575	13723.862305	1788.095093	4.289308
593.271423	1250.886353	13840.070313	1791.735840	4.296144
593.612000	1250.440552	14035.859375	1797.011353	4.274954
593.952576	1248.805786	14188.699219	1796.565430	4.233108
594.292969	1242.638672	14308.622070	1810.311523	4.344662
594.633484	1238.700806	14441.104492	1819.376343	4.398256
594.973877	1240.558350	14665.647461	1836.911987	4.442083
595.314209	1248.954468	14936.852539	1843.004517	4.339965
595.654480	1249.994751	15278.348633	1857.122192	4.327859
595.994812	1245.833740	15612.637695	1862.694946	4.293656
596.335022	1245.313599	15911.557617	1874.880493	4.292625
596.675171	1248.657227	15991.878906	1875.920898	4.254590
597.015320	1254.750000	15894.541992	1873.840332	4.228819
597.355408	1249.325806	15575.782227	1862.472046	4.279818
597.695496	1252.446655	15162.510742	1845.010742	4.259966
598.035461	1250.366089	14664.532227	1825.320679	4.286175
598.375366	1250.812012	14204.823242	1801.172363	4.248571
598.715271	1243.604614	13797.198242	1783.413940	4.300038
599.055176	1241.672729	13434.155273	1767.958984	4.316482
599.395081	1243.678955	13166.367188	1752.280884	4.265832
599.734802	1252.744019	12937.886719	1743.216187	4.197400
600.074524	1247.765625	12822.495117	1744.256470	4.289438
600.414246	1247.542725	12764.018555	1743.662109	4.307910
600.753906	1241.672852	12813.578125	1740.466919	4.310389
601.093506	1247.022583	12886.618164	1741.209961	4.245743
601.433044	1249.920288	13037.898438	1749.308960	4.236423
601.772583	1250.737671	13253.153320	1764.020874	4.276499
602.112122	1255.641724	13591.082031	1776.132202	4.219472
602.451538	1251.034912	13954.496094	1784.825806	4.201933
602.790894	1255.195801	14350.679688	1798.200195	4.146501
603.130310	1250.143188	14791.590820	1809.717163	4.132306
603.469604	1256.979126	15165.260742	1821.159668	4.056436
603.808838	1257.870728	15540.489258	1831.933594	4.019311
604.148010	1248.657227	15805.750000	1849.171753	4.125237
604.487305	1241.970093	15943.877930	1859.871460	4.202865
604.826416	1233.127930	15860.659180	1857.791016	4.270462
605.165527	1243.901855	15549.182617	1833.939819	4.124616
605.504456	1241.821411	15174.622070	1817.518921	4.131958
605.843445	1244.793457	14659.036133	1798.943237	4.131055
606.182434	1246.874023	14173.690430	1785.345703	4.165540
606.521423	1251.109131	13695.997070	1772.268433	4.187738
606.860229	1253.486816	13355.691406	1757.482300	4.164493
607.199036	1254.378540	13141.105469	1751.909546	4.185602
607.537903	1257.870728	13116.510742	1747.376953	4.127845
607.876648	1262.254517	13235.916992	1749.160278	4.066473
608.215271	1262.774658	13428.210938	1746.559937	3.976719
608.553955	1260.099731	13680.765625	1749.829102	3.942859
608.892578	1252.892456	13882.422852	1757.630859	3.996494
609.231140	1254.155640	14027.165039	1776.652344	4.090631
609.569641	1252.818237	13994.100586	1772.640015	4.079823
609.908081	1254.824341	13873.135742	1765.581421	4.047745
610.246521	1249.697388	13612.109375	1751.612305	4.060008
610.584961	1253.709839	13290.601563	1747.377075	4.101285
610.923340	1252.669556	12913.070313	1734.002563	4.127929
611.261597	1250.960571	12525.507813	1712.157593	4.090604
611.599854	1239.889526	12214.030273	1691.650024	4.116591
611.938110	1247.394043	11922.168945	1685.037109	4.099787
612.276245	1253.709839	11705.575195	1680.876099	4.086986
612.614319	1265.672485	11482.073242	1675.749390	4.013908
612.952393	1256.533325	11338.520508	1670.696655	4.107953
613.290466	1257.350708	11227.958008	1660.814331	4.046530
613.628479	1250.589233	11098.671875	1657.619263	4.133089
613.966370	1254.750122	10988.257813	1648.257202	4.042809
614.304260	1249.325928	10858.004883	1653.012573	4.201271
614.642151	1250.068970	10809.485352	1647.291382	4.155300
614.979980	1245.685059	10774.042969	1638.746460	4.125175
615.317749	1241.375488	10756.061523	1635.328491	4.140473
615.655396	1246.279541	10720.098633	1638.895020	4.144216
615.993164	1253.338257	10683.467773	1645.953735	4.163415
616.330811	1256.161987	10707.468750	1652.938354	4.198111
616.668396	1253.338379	10714.898438	1649.223145	4.184138
617.005859	1247.914185	10750.860352	1647.662720	4.206575
617.343445	1244.347656	10736.668945	1645.359375	4.224591
617.680908	1245.685181	10736.149414	1644.467773	4.201930
618.018311	1254.750122	10712.075195	1650.709351	4.186800
618.355652	1269.090454	10685.176758	1637.334839	3.910801
618.692993	1270.502319	10639.035156	1640.381226	3.948098
619.030273	1264.557983	10625.661133	1632.282227	3.928215
619.367554	1259.654053	10604.781250	1635.328491	4.020004
619.704712	1262.849121	10605.895508	1629.755859	3.927057
620.041870	1256.161743	10560.200195	1628.269897	3.999426
620.379028	1248.657227	10483.222656	1630.573242	4.135723
620.716064	1240.186646	10453.204102	1631.687866	4.249435
621.053040	1248.359985	10453.798828	1633.099609	4.179482
621.389954	1247.914185	10465.909180	1625.669312	4.098018
621.726929	1247.171021	10421.476563	1624.331909	4.111056
622.063843	1238.031982	10366.046875	1618.238892	4.165275
622.400635	1245.016357	10354.529297	1618.833496	4.103591
622.737427	1254.081421	10373.403320	1619.947876	4.011992
623.074219	1261.140137	10390.121094	1630.201660	4.042747
623.410889	1258.539429	10438.268555	1631.984985	4.068154
623.747559	1254.601440	10481.661133	1636.145874	4.135060
624.084167	1254.898560	10567.407227	1642.164429	4.158556
624.420715	1256.087524	10676.112305	1653.607056	4.219942
624.757324	1255.195923	10819.961914	1656.876343	4.199584
625.093750	1255.641724	11003.340820	1652.789673	4.074274
625.430176	1255.344482	11225.133789	1658.362427	4.042392
625.766602	1256.087524	11426.941406	1666.164185	4.031880
626.102905	1252.149414	11590.629883	1686.448853	4.200805
626.439209	1246.725464	11670.729492	1697.594238	4.325294
626.775452	1246.428101	11743.543945	1704.875977	4.367370
627.111694	1247.394043	11729.352539	1698.634644	4.304926
627.447876	1249.177246	11648.883789	1686.671875	4.206798
627.783997	1243.827515	11503.027344	1681.396118	4.265134
628.120056	1242.935913	11356.799805	1682.213501	4.343321
628.456055	1241.821411	11191.996094	1680.281860	4.406560
628.792053	1249.251587	10993.980469	1674.188965	4.360690
629.128052	1252.297974	10804.953125	1665.495483	4.325473
629.463928	1249.474487	10646.540039	1658.139526	4.348858
629.799744	1242.638672	10524.757813	1662.226196	4.520385
630.135559	1239.072266	10407.657227	1659.848633	4.589327
630.471375	1245.610840	10281.936523	1658.065308	4.564404
630.807068	1248.657227	10218.258789	1649.000366	4.463333
631.142700	1257.202026	10168.624023	1646.919800	4.373239
631.478333	1260.694214	10122.036133	1642.387329	4.307396
631.813965	1255.195923	10065.789063	1644.839478	4.422444
632.149475	1247.096802	10018.607422	1638.523804	4.462481
632.484924	1243.010254	10005.604492	1635.922974	4.483977
632.820435	1247.468384	9991.338867	1642.090210	4.513125
633.155884	1244.421997	9992.452148	1642.610229	4.551747
633.491150	1242.564453	10014.372070	1651.898071	4.666468
633.826477	1247.765625	10008.353516	1643.947876	4.522325
634.161804	1249.474609	10014.817383	1640.752808	4.463923
634.497009	1254.229858	9971.053711	1633.842651	4.354944
634.832153	1245.908081	9906.039063	1627.972656	4.411765
635.167297	1250.960571	9802.833008	1620.245117	4.318172
635.502380	1251.629395	9727.935547	1615.192505	4.289169
635.837463	1254.675781	9646.500000	1611.997437	4.257974
636.172424	1252.744019	9571.454102	1620.988281	4.426699
636.507324	1251.480835	9472.185547	1616.604370	4.441511
636.842224	1251.629517	9395.133789	1607.836548	4.374125
637.177124	1254.898804	9276.100586	1601.743774	4.324102
637.511963	1251.406616	9199.866211	1596.468384	4.341241
637.846741	1256.236084	9121.550781	1595.428101	4.312504
638.181396	1252.149536	9072.659180	1590.523926	4.326756
638.516113	1254.006958	8996.127930	1593.718872	4.387840
638.850769	1252.966675	8911.497070	1600.777710	4.541485
639.185303	1256.830444	8816.834961	1599.960449	4.538754
639.519836	1256.904785	8743.275391	1602.115234	4.611186
639.854370	1253.412598	8696.316406	1598.028687	4.630129
640.188843	1252.223755	8664.216797	1591.638550	4.579265
640.523254	1253.041016	8626.100586	1590.746948	4.580268
640.857605	1250.217651	8559.301758	1593.124634	4.691518
641.191895	1247.468384	8511.450195	1596.096680	4.799410
641.526184	1245.982300	8449.036133	1590.746948	4.786368
641.860413	1252.966797	8409.879883	1590.003906	4.709252
642.194580	1253.041016	8371.761719	1588.889526	4.717821
642.528748	1249.548828	8350.659180	1592.976074	4.836247
642.862793	1243.158813	8339.588867	1587.849121	4.857235
643.196838	1236.694458	8284.084961	1591.787109	5.038640
643.530823	1237.214478	8273.237305	1586.065918	4.958077
643.864746	1240.558228	8224.940430	1590.226929	5.006437
644.198669	1246.279419	8230.438477	1590.598267	4.929997
644.532532	1260.694214	8184.519043	1590.524048	4.763694
644.866333	1263.517700	8194.327148	1589.706665	4.706362
645.200073	1263.889282	8197.967773	1582.127930	4.589487
645.533813	1256.013184	8222.487305	1599.811890	4.935046
645.867554	1251.183594	8227.540039	1589.112305	4.843914
646.201172	1251.703613	8227.465820	1596.914063	4.948713
646.534729	1248.954468	8232.889648	1595.428101	4.961009
646.868225	1253.041016	8222.190430	1613.186523	5.167711
647.201782	1255.418823	8253.546875	1619.576538	5.203645
647.535217	1257.870850	8248.866211	1614.672363	5.103730
647.868591	1254.824341	8260.678711	1607.390625	5.032452
648.201965	1254.898804	8242.624023	1610.214233	5.084851
648.535278	1253.115479	8226.425781	1606.424805	5.066594
648.868591	1255.121582	8227.985352	1610.065796	5.090365
649.201782	1253.264038	8213.125977	1605.533203	5.061439
649.534912	1249.028687	8234.674805	1609.917114	5.166142
649.868103	1245.759399	8216.766602	1615.489746	5.303830
650.201172	1247.839844	8218.252930	1617.495972	5.303217
650.534180	1258.316528	8181.621094	1614.078003	5.138608
650.867188	1259.431030	8175.230957	1611.254517	5.087242
651.200134	1254.081177	8176.791504	1612.517700	5.177691
651.533020	1245.536499	8199.231445	1610.288574	5.245443
651.865845	1251.852173	8199.602539	1624.331909	5.361156
652.198608	1253.784058	8173.225098	1624.629028	5.359464
652.531433	1250.514771	8108.507324	1629.310181	5.523415
652.864136	1250.291870	8068.829590	1622.474243	5.458390
653.196777	1358.253784	8126.636719	1665.941406	4.545955
653.529358	1368.804688	8079.529297	1667.798828	4.455467
653.861938	1362.191772	8018.303223	1662.003296	4.504304
654.194519	1256.087524	7830.020996	1626.560913	5.635490
654.526978	1255.047241	7773.476563	1626.709351	5.701713
654.859375	1257.796509	7716.931641	1626.337891	5.705739
655.191833	1255.270142	7706.975098	1625.223511	5.734195
655.524170	1242.044189	7728.152344	1633.322388	6.032557
655.856445	1236.768677	7763.668457	1635.254272	6.105281
656.188660	1239.295044	7790.342285	1636.442993	6.062358
656.520874	1246.873901	7819.841309	1629.458618	5.820579
656.853088	1251.555054	7870.738281	1642.907349	5.912395
657.185181	1254.898560	7953.066406	1644.541992	5.817164
657.517212	1254.006958	8071.356934	1659.774292	5.951980
657.849243	1253.264038	8231.627930	1660.665894	5.838071
658.181274	1250.663452	8452.158203	1667.353149	5.786156
658.513123	1250.589111	8646.310547	1687.192017	5.903452
658.844971	1247.022583	8803.981445	1710.597290	6.134408
659.176819	1248.582886	8901.911133	1725.903687	6.236774
659.508667	1248.508667	8978.071289	1730.064453	6.230052
659.840393	1249.697388	8975.991211	1723.451538	6.131713
660.172058	1254.973022	8880.289063	1723.674438	6.146649
660.503662	1251.480835	8719.499023	1713.197876	6.182591
660.835266	1254.081421	8546.893555	1713.495117	6.299541
661.166931	1245.982300	8381.569336	1701.978149	6.390446
661.498413	1246.725464	8228.133789	1690.758423	6.360220
661.829773	1241.672729	8048.470215	1672.479858	6.329072
662.161194	1242.564453	7841.908691	1676.492188	6.575316
662.492615	1240.855469	7666.108887	1666.833008	6.629739
662.823975	1242.415894	7540.462891	1660.665894	6.640948
663.155212	1236.694580	7466.605957	1643.427368	6.528709
663.486450	1244.421997	7377.368652	1646.027954	6.548336
663.817627	1257.499146	7306.781250	1645.582153	6.415356
664.148743	1261.585815	7260.341797	1644.541992	6.383927
664.479858	1259.802612	7207.513184	1634.957031	6.307543
664.810913	1254.155640	7166.274902	1628.046875	6.324149
665.141907	1251.703613	7130.386719	1634.139648	6.505471
665.472778	1243.976196	7118.646484	1632.356445	6.611099
665.803711	1245.239380	7121.321777	1637.780396	6.680318
666.134583	1247.839966	7103.042969	1631.539063	6.553131
666.465454	1253.264038	7102.076660	1649.669067	6.777530
666.796143	1244.793457	7075.253418	1647.662964	6.909738
667.126831	1249.251587	7052.442871	1654.795898	6.988298
667.457458	1248.434326	7039.736816	1647.439819	6.889736
667.788147	1249.548706	7032.380859	1648.480103	6.898547
668.118774	1239.815063	7053.779785	1644.839355	6.966404
668.449219	1247.319824	7069.087402	1648.554321	6.891970
668.779663	1247.171265	7078.300293	1665.644043	7.176531
669.110107	1247.468384	7066.040527	1669.210571	7.248208
669.440552	1242.713013	7053.482910	1682.213745	7.563554
669.770874	1240.409668	7046.201172	1675.749390	7.498370
670.101135	1252.372437	7033.123535	1681.842163	7.429307
670.431396	1256.236206	7000.431152	1669.136353	7.188129
670.761597	1259.356812	6925.533691	1670.548218	7.256947
671.091797	1253.486938	6852.122559	1663.786499	7.328563
671.421875	1248.508667	6774.476074	1663.638062	7.512339
671.751892	1250.291870	6751.219238	1661.037476	7.466843
672.081909	1250.366211	6719.269531	1664.232422	7.567627
672.411865	1254.378540	6689.845215	1668.244751	7.614180
672.741821	1247.394165	6645.264160	1666.164429	7.758065
673.071716	1241.970093	6632.929688	1674.337524	8.020231
673.401550	1241.152710	6604.025879	1672.925781	8.051152
673.731262	1247.839966	6601.722656	1675.972290	7.996670
674.060974	1248.508667	6563.531250	1662.523438	7.789521
674.390625	1242.192993	6553.276855	1669.359375	8.042923
674.720276	1245.462280	6524.818848	1674.337524	8.123628
675.049927	1251.480835	6516.423340	1686.226074	8.257360
675.379395	1257.722168	6500.670410	1678.424194	8.024150
675.708923	1258.316528	6500.225098	1678.126953	8.008732
676.038330	1251.034912	6479.865723	1663.117798	7.880975
676.367737	1255.270142	6456.609375	1662.820679	7.835492
676.697083	1258.093750	6431.866699	1668.987671	7.941862
677.026428	1254.155640	6448.881348	1690.981445	8.409025
677.355652	1244.570557	6489.525391	1696.999878	8.625991
677.684875	1238.626343	6545.029785	1693.433228	8.570907
678.013977	1249.771606	6602.391113	1688.678101	8.199844
678.343079	1260.099731	6681.151855	1697.891602	8.075773
678.672180	1254.601440	6737.324219	1703.910034	8.194990
679.001221	1248.285645	6817.645996	1715.947144	8.397041
679.330139	1248.880005	6906.066406	1731.773438	8.535929
679.659058	1254.898560	6990.027832	1752.949829	8.684220
679.987976	1260.768555	7064.330566	1769.519165	8.766178
680.316772	1249.623169	7070.646484	1771.971313	8.973476
680.645630	1247.394043	7070.200684	1775.166138	9.063878
680.974304	1246.502441	7022.795410	1774.274780	9.136869
681.302979	1239.592285	7005.780762	1776.503784	9.311377
681.631653	1237.734741	6963.205078	1772.417114	9.338663
681.960266	1233.722290	6920.257813	1771.674194	9.460099
682.288757	1241.004028	6838.450684	1766.250000	9.383671
682.617249	1239.146484	6754.860840	1768.553345	9.598156
682.945679	1238.329102	6658.044434	1760.751587	9.639297
683.274109	1240.558228	6579.877441	1761.420410	9.755217
683.602478	1251.926392	6476.299316	1747.005737	9.476340
683.930725	1259.505371	6361.947266	1736.751953	9.353298
684.259033	1259.282593	6254.876953	1724.566284	9.313881
684.587280	1259.579712	6184.735840	1720.033813	9.349026
684.915344	1258.539551	6151.299316	1714.906860	9.327401
685.243469	1263.443481	6101.144531	1712.900757	9.290720
685.571533	1252.223877	6057.603027	1713.643555	9.602150
685.899536	1255.790405	6023.646973	1722.931519	9.797718
686.227539	1259.059570	6022.606934	1729.544556	9.876778
686.555420	1259.802612	6042.892090	1730.881958	9.848851
686.883301	1253.041138	6054.408203	1725.234741	9.834565
687.211121	1242.341431	6068.823730	1723.748657	9.974287
687.538940	1243.604736	6075.732910	1732.888062	10.125628
687.866638	1239.666626	6102.036621	1744.702148	10.386612
688.194336	1244.793579	6084.798340	1751.389526	10.466847
688.521973	1248.211426	6046.012207	1752.875488	10.518654
688.849609	1256.607544	5973.938965	1746.634155	10.387793
689.177063	1253.784058	5929.803223	1742.250366	10.446200
689.504578	1257.573608	5876.453125	1730.584595	10.240817
689.832031	1250.291992	5840.490723	1725.754883	10.358220
690.159485	1249.548950	5773.320801	1723.228516	10.470899
690.486816	1244.570557	5736.467285	1720.330688	10.591520
690.814087	1251.109253	5676.951172	1723.674438	10.677408
691.141296	1248.359985	5647.304688	1720.405273	10.730875
691.468506	1243.084473	5596.183594	1718.473267	10.920697
691.795715	1247.914185	5542.166016	1712.974976	10.829844
692.122803	1257.499146	5478.265625	1711.340210	10.752574
692.449829	1257.647827	5448.172852	1714.832520	10.909963
692.776855	1249.177246	5411.095703	1709.631470	11.063509
693.103821	1245.462158	5376.024902	1701.755249	11.046754
693.430664	1248.880249	5341.028320	1696.108276	10.928931
693.757568	1245.239258	5309.672363	1700.120483	11.191751
694.084351	1247.245483	5304.768555	1699.080444	11.135734
694.411133	1249.400269	5273.041016	1697.296997	11.131629
694.737854	1253.338257	5282.998047	1699.377563	11.068908
695.064575	1242.713013	5286.416016	1714.386719	11.664400
695.391174	1242.044312	5310.861816	1727.315430	11.926589
695.717773	1241.895630	5331.963379	1740.021118	12.178905
696.044250	1253.784180	5366.142578	1743.290527	11.903299
696.370789	1260.397095	5443.269043	1743.661987	11.553423
696.697205	1261.214355	5550.041504	1741.432739	11.196963
697.023621	1262.477539	5674.201660	1755.698853	11.179786
697.349915	1257.202026	5821.394531	1780.590454	11.467274
697.676208	1255.121460	6011.460938	1816.032837	11.792922
698.002380	1249.920410	6236.821777	1844.862305	11.930092
698.328674	1250.217529	6438.776855	1882.533813	12.186740
698.654724	1244.942017	6588.720215	1904.824585	12.348614
698.980896	1249.548828	6678.402832	1930.458984	12.542429
699.306946	1252.075195	6696.755859	1923.846069	12.338114
699.632935	1260.768555	6621.338379	1913.369263	12.174092
699.958862	1259.208374	6493.314941	1884.985718	11.955763
700.284729	1258.390991	6302.653809	1868.119141	12.087558
700.610596	1258.762573	6124.327637	1849.394897	12.139029
700.936340	1266.192749	5920.292480	1830.298950	12.120630
701.262146	1268.347534	5733.049316	1803.401367	11.984089
701.587830	1264.335083	5544.692871	1785.419922	12.173862
701.913513	1251.480713	5376.545410	1771.005371	12.594340
702.239075	1246.502319	5253.425293	1761.197266	12.845142
702.564697	1245.164917	5143.011230	1746.708374	12.867195
702.890137	1244.867676	5059.197754	1739.575317	12.969712
703.215698	1239.443726	4976.053223	1736.306030	13.297143
703.541016	1243.010376	4911.187012	1740.169556	13.553305
703.866455	1252.075317	4861.626953	1738.460571	13.474949
704.191711	1256.236206	4820.314941	1737.643433	13.507200
704.517029	1255.195923	4789.107422	1738.015015	13.662456
704.842163	1245.239380	4749.281738	1736.008789	14.005807
705.167419	1248.285645	4721.194824	1730.807617	13.893884
705.492493	1245.759399	4717.702148	1728.504272	13.904171
705.817566	1249.474609	4700.984375	1726.200806	13.812106
706.142578	1250.663452	4691.102051	1739.798218	14.217221
706.467590	1254.527222	4663.907227	1742.918945	14.324943
706.792480	1251.926636	4670.892090	1752.503906	14.641191
707.117371	1247.171143	4687.387207	1749.754883	14.609075
707.442200	1240.706787	4699.646973	1751.538086	14.768434
707.766907	1238.254883	4705.368652	1749.457642	14.744331
708.091675	1238.180542	4710.866699	1744.776489	14.588015
708.416321	1243.456055	4715.919434	1737.866333	14.238028
708.741028	1243.158813	4724.687012	1738.757935	14.235103
709.065552	1244.199097	4725.430176	1745.890991	14.411336
709.390137	1242.861572	4739.176270	1754.287231	14.627563
709.714600	1244.496216	4768.376953	1758.819702	14.595371
710.039063	1244.942017	4818.531250	1760.603027	14.429778
710.363403	1245.908081	4870.617676	1768.776367	14.425109
710.687744	1248.211426	4926.196289	1775.537964	14.337377
711.012085	1247.319824	4965.874512	1792.924805	14.672502
711.336304	1243.530396	4983.854980	1805.630493	15.028110
711.660461	1246.651001	4977.836426	1815.215454	15.238172
711.984619	1247.616943	4931.917480	1812.094727	15.321165
712.308716	1255.344360	4905.020020	1807.859497	15.138745
712.632751	1250.068970	4864.153809	1803.921387	15.324831
712.956726	1244.644897	4829.676270	1797.011230	15.407574
713.280701	1241.375610	4792.005371	1788.540649	15.410365
713.604553	1244.124756	4747.126465	1783.116699	15.386574
713.928467	1249.846191	4734.271973	1786.683228	15.406757
714.252258	1252.818237	4697.640625	1789.432495	15.577415
714.575989	1255.716064	4697.937988	1793.667603	15.628032
714.899719	1260.545532	4692.365723	1798.794556	15.684068
715.223267	1256.087524	4702.916504	1794.262085	15.613613
715.546936	1255.864624	4693.554199	1790.695679	15.557864
715.870422	1246.874023	4671.560547	1782.076538	15.627781
716.193970	1256.533325	4649.642090	1788.986694	15.692198
716.517395	1256.384644	4628.985352	1794.039063	15.941835
716.840820	1259.133789	4589.530273	1790.992798	15.969841
717.164124	1256.756104	4550.075684	1783.636719	15.998466
717.487488	1251.629272	4492.491211	1770.039429	15.996058
717.810730	1249.251587	4444.417480	1768.107422	16.238775
718.133972	1244.644897	4370.263184	1758.968262	16.455093
718.457092	1250.812012	4305.768555	1761.271606	16.709227
718.780212	1248.657349	4255.985840	1752.429688	16.751490
719.103210	1245.536621	4217.348145	1745.519531	16.824181
719.426208	1237.437378	4176.407227	1736.380249	16.976795
719.749207	1247.839844	4135.095215	1737.048950	16.943743
720.072083	1251.109131	4086.129883	1739.872559	17.240206
720.394958	1260.099731	4050.241455	1731.773438	16.905010
720.717773	1254.750122	4009.300781	1723.080078	17.002045
721.040527	1253.041138	3985.746826	1722.931274	17.195051
721.363281	1244.421997	3951.641602	1720.033569	17.568266
721.685913	1250.960571	3929.871094	1717.061523	17.398899
722.008545	1247.839966	3911.592529	1707.105103	17.241285
722.331055	1253.784058	3906.762695	1701.086426	16.860384
722.653503	1247.394043	3900.075439	1699.674805	17.049946
722.976013	1254.229858	3896.806396	1703.092773	16.985806
723.298401	1254.973022	3881.722900	1712.751953	17.427580
723.620789	1246.056519	3879.047852	1718.027466	17.925276
723.943115	1237.883179	3860.397705	1716.764282	18.260378
724.265381	1235.356934	3858.540283	1713.792358	18.238733
724.587585	1241.004028	3836.769775	1712.528931	18.165157
724.909790	1239.295044	3845.760498	1709.779907	18.050686
725.231873	1235.431274	3843.457031	1717.284546	18.475786
725.553894	1236.397339	3871.171875	1728.652832	18.683022
725.875916	1282.836548	3923.332275	1781.927734	18.901421
726.197937	1284.322510	3935.072266	1782.002075	18.775049
726.519775	1287.740479	3935.146484	1781.110474	18.635979
726.841675	1247.542603	3944.879883	1737.643433	18.169800
727.163513	1252.669556	3982.105469	1744.033569	18.002401
727.485291	1257.870728	4014.798828	1747.971558	17.777061
727.806946	1260.248413	4018.068115	1757.110840	18.016493
728.128662	1260.248413	4033.002930	1761.197388	18.066835
728.450256	1256.681885	4044.445557	1763.723633	18.188118
728.771790	1256.458984	4036.346680	1771.005371	18.509611
729.093323	1254.898560	4020.074463	1764.317993	18.422678
729.414795	1253.115356	4016.656982	1761.717651	18.404005
729.736145	1245.833740	4013.090088	1750.497925	18.236988
730.057495	1245.908081	4029.436768	1762.088989	18.544119
730.378845	1239.295044	4034.786377	1768.404663	18.927250
730.700134	1237.957642	4043.405273	1781.630737	19.379192
731.021301	1240.112427	4068.222656	1783.042358	19.197622
731.342468	1250.217651	4092.965576	1788.466431	18.934101
731.663574	1253.932739	4111.615723	1789.209595	18.731148
731.984680	1254.675781	4111.318359	1794.633667	18.901836
732.305664	1245.387817	4113.324219	1797.011353	19.234161
732.626648	1247.319702	4123.429688	1792.032837	18.939232
732.947571	1244.570557	4131.082520	1792.999023	18.999695
733.268433	1253.412598	4112.061035	1792.553101	18.859980
733.589233	1259.876953	4097.646484	1805.630371	19.231773
733.909973	1263.071899	4059.900391	1806.522095	19.430944
734.230713	1260.694214	4014.130127	1804.664429	19.756050
734.551331	1248.285767	3935.294922	1793.444824	20.288692
734.871948	1240.335327	3861.066406	1782.819458	20.699726
735.192505	1238.477783	3819.234131	1772.714355	20.700775
735.513062	1243.010254	3785.797852	1755.178833	20.142012
735.833435	1247.245483	3759.643311	1742.473022	19.711349
736.153931	1245.239258	3719.817139	1733.482422	19.730362
736.474304	1249.994629	3700.349854	1736.900391	19.870823
736.794617	1253.561279	3689.501709	1741.581421	20.034157
737.114807	1256.756226	3684.300537	1744.182007	20.078964
737.434998	1262.626221	3673.303711	1745.445190	20.028353
737.755188	1260.842896	3691.062256	1739.649536	19.702200
738.075256	1259.505371	3721.229248	1747.302734	19.815275
738.395325	1252.298096	3743.891357	1755.253296	20.186089
738.715271	1253.041138	3744.039795	1767.736206	20.662199
739.035278	1250.812012	3743.816650	1774.423218	21.003218
739.355164	1256.310425	3735.717773	1779.252930	21.091433
739.675049	1258.985229	3730.145264	1783.339478	21.218950
739.994873	1259.431030	3712.758545	1776.578125	21.079414
740.314636	1251.926514	3699.681396	1769.073608	21.127405
740.634277	1246.502441	3653.316406	1764.615234	21.526915
740.953979	1243.753296	3610.517822	1751.017944	21.432831
741.273499	1248.508667	3576.487061	1746.856934	21.406910
741.593140	1245.982300	3548.772217	1735.042847	21.237740
741.912598	1253.412720	3508.054443	1733.854004	21.308987
742.232117	1252.149536	3463.324219	1731.476196	21.677465
742.551453	1252.892456	3441.479248	1736.008789	22.074350
742.870850	1253.189575	3427.287109	1737.940796	22.296663
743.190063	1249.697510	3412.352295	1723.600220	21.913008
743.509338	1248.582886	3403.881836	1712.528931	21.525833
743.828552	1240.781128	3398.309326	1709.036743	21.703335
744.147705	1236.025757	3382.111328	1714.609741	22.300323
744.466797	1237.957642	3361.083984	1714.238281	22.432985
744.785828	1245.833862	3336.117920	1718.176270	22.597042
745.104858	1253.338257	3329.281982	1719.067749	22.434589
745.423706	1256.681885	3300.080811	1718.770508	22.613726
745.742615	1251.480713	3280.910889	1705.247437	22.359318
746.061401	1246.948364	3263.821045	1693.804810	22.155907
746.380249	1246.725464	3276.155518	1684.516968	21.572140
746.698975	1253.858521	3271.400146	1688.157837	21.526163
747.017639	1257.945190	3266.050049	1689.495239	21.490414
747.336304	1248.137207	3240.267578	1694.845093	22.423628
747.654907	1241.524292	3227.338623	1694.102051	22.790537
747.973389	1240.781128	3219.462891	1698.114380	23.113028
748.291931	1251.035034	3220.800049	1703.538452	22.972456
748.610352	1257.202026	3235.586182	1708.368164	22.804779
748.928711	1255.344482	3240.044678	1719.587891	23.391109
749.247070	1249.548950	3252.081299	1717.730469	23.379473
749.565308	1247.914185	3234.546143	1715.129883	23.517979
749.883545	1254.750000	3231.871094	1706.956543	22.871969
750.201782	1257.573486	3223.103516	1706.659180	22.848070
750.519836	1254.378540	3217.828125	1710.968750	23.254492
750.837952	1243.455933	3216.044922	1710.299927	23.666561
751.155884	1244.050415	3214.558594	1712.231812	23.759424
751.473877	1242.564453	3222.285889	1713.346313	23.780207
751.791809	1255.716064	3218.496338	1710.077148	23.148851
752.109619	1256.236206	3210.992188	1701.012207	22.753531
752.427490	1267.530151	3194.645264	1691.352905	21.992601
752.745300	1261.288696	3198.434570	1694.250610	22.350506
753.062988	1263.072021	3206.682373	1700.417847	22.501724
753.380615	1246.725464	3206.459717	1702.275391	23.245495
753.698303	1245.239258	3201.852783	1704.652954	23.480043
754.015808	1242.192871	3185.506104	1709.557007	24.049862
754.333374	1254.229858	3191.822021	1710.299927	23.537981
754.650757	1249.548828	3184.391602	1703.984375	23.486950
754.968262	1253.561157	3173.766357	1702.126831	23.360298
755.285583	1250.886230	3172.651611	1705.916138	23.677704
755.602905	1251.183472	3161.209229	1720.999634	24.597374
755.920105	1243.678833	3166.707764	1722.039917	24.875397
756.237305	1239.072144	3165.370361	1719.810913	24.956612
756.554443	1246.799683	3166.410889	1712.751953	24.273262
756.871582	1247.765503	3167.599365	1709.779907	24.065332
757.188599	1248.062866	3173.692139	1711.117310	24.046915
757.505615	1246.428101	3197.022705	1713.123535	23.925804
757.822510	1246.874023	3225.927002	1722.708618	24.043550
758.139465	1251.257690	3251.932861	1735.637329	24.210808
758.456238	1246.205200	3269.096680	1750.349243	24.921951
758.773010	1255.493042	3286.632080	1759.414185	24.809780
759.089783	1258.390869	3300.006592	1763.203613	24.726139
759.406433	1263.963501	3304.985107	1754.584351	24.038004
759.723145	1255.938843	3312.117920	1751.983887	24.124601
760.039673	1252.669556	3327.349854	1747.005493	23.827091
760.356201	1254.675659	3346.148438	1756.367798	23.987507
760.672668	1257.499268	3353.430420	1755.773315	23.773397
760.989136	1251.480835	3360.786377	1760.602905	24.136951
761.305481	1241.004150	3362.495361	1759.934204	24.460627
761.621826	1243.976196	3357.962891	1762.460449	24.526371
761.938049	1253.932739	3355.065186	1767.067261	24.421808
762.254333	1251.034912	3379.956299	1778.435547	24.773138
762.570496	1238.254883	3458.048828	1793.519043	25.014221
762.886597	1235.059937	3593.948486	1833.122437	25.353571
763.202637	1248.805908	3799.098389	1883.350952	24.881266
763.518677	1249.251587	4035.455078	1947.920288	25.076010
763.834656	1245.313599	4258.883301	2002.012329	25.109713
764.150574	1240.038086	4396.194824	2036.860352	25.246599
764.466370	1248.508667	4411.724121	2052.315430	25.411066
764.782288	1249.697388	4314.610352	2027.423950	25.375158
765.097961	1254.006958	4166.896484	1991.461548	25.316942
765.413696	1253.561157	4006.105469	1941.753052	25.002028
765.729309	1252.743896	3839.816162	1898.360352	24.955486
766.044861	1249.474487	3683.854736	1859.574219	25.061808
766.360474	1247.245483	3557.762939	1831.636353	25.292639
766.675903	1244.421997	3464.290039	1808.008179	25.388273
766.991394	1248.359985	3394.222656	1792.701782	25.367037
767.306763	1249.474609	3320.811279	1786.311890	25.917433
767.622131	1252.298096	3280.242188	1784.231445	26.230179
767.937378	1245.982422	3238.335693	1770.633911	26.333256
768.252625	1243.753296	3214.930420	1756.516235	26.013033
768.567810	1247.022583	3163.809814	1742.918945	25.871225
768.882996	1250.068970	3116.999023	1734.225464	25.933296
769.197998	1251.852173	3071.228516	1724.863281	25.998529
769.513062	1252.000854	3040.095703	1714.015259	25.838362
769.828064	1254.155640	3004.579102	1712.306274	26.173702
770.142944	1255.195801	2986.300537	1706.361938	26.062325
770.457825	1248.359985	2976.938232	1705.396118	26.440002
770.772705	1243.158813	2975.898438	1704.578735	26.629501
771.087402	1246.056763	2946.548828	1700.194946	26.706280
771.402100	1252.075073	2921.062744	1696.405396	26.622744
771.716736	1248.062866	2896.840576	1686.746094	26.606571
772.031372	1247.765503	2893.050781	1679.167114	26.220474
772.345947	1245.982300	2887.998047	1669.730835	25.806606
772.660461	1247.542603	2868.307861	1662.449219	25.599426
772.974854	1250.291870	2852.778564	1662.597656	25.729124
773.289246	1251.777954	2834.574219	1656.579102	25.575064
773.603638	1260.471313	2829.298828	1660.591431	25.504404
773.917908	1252.743774	2817.559326	1657.322144	25.854700
774.232178	1252.297974	2800.841064	1661.111694	26.399893
774.546265	1246.428101	2783.156982	1658.734009	26.830101
774.860474	1246.279663	2764.432617	1655.538940	26.957710
775.174561	1249.177368	2758.414307	1653.830078	26.811741
775.488586	1246.502441	2758.265625	1646.622681	26.467125
775.802551	1254.675659	2753.807373	1644.765259	26.021036
776.116516	1254.006958	2735.826172	1649.891968	26.716148
776.430359	1248.434204	2724.457764	1653.681519	27.455341
776.744202	1241.969971	2729.287354	1660.740112	28.156071
777.057922	1239.295044	2723.937744	1660.145630	28.346928
777.371704	1247.245483	2730.253174	1660.665894	27.877159
777.685303	1249.400269	2714.278320	1657.248047	27.841757
777.998962	1249.846069	2726.166992	1655.241821	27.459866
778.312500	1251.480835	2697.931885	1658.511108	28.139927
778.626038	1251.109253	2694.662354	1649.446167	27.594198
778.939453	1246.874023	2677.572998	1647.365601	27.992722
779.252869	1247.542725	2693.919189	1639.340942	27.088261
779.566223	1244.793457	2693.845215	1649.520386	27.930468
779.879578	1253.858398	2693.844971	1646.919922	27.296194
780.192749	1254.229858	2687.381104	1654.721680	27.944839
780.505920	1261.734375	2680.545166	1647.960327	27.221807
780.819031	1265.375366	2680.916504	1647.291504	26.980221
781.132141	1259.431030	2672.148682	1643.724731	27.202442
781.445190	1252.595337	2675.195313	1643.799194	27.499218
781.758118	1247.616943	2656.248047	1655.167358	28.932373
782.071045	1255.641724	2644.582764	1649.445923	28.352839
782.383911	1257.722168	2628.458740	1647.068359	28.404160
782.696838	1246.799683	2617.610596	1630.647461	28.001513
783.009583	1250.143311	2607.208008	1626.635132	27.743101
783.322266	1252.520874	2584.545898	1621.805298	27.723536
783.634888	1264.186523	2577.784180	1608.431030	26.206236
783.947510	1254.601440	2577.189697	1609.396851	26.825840
784.260132	1254.601440	2574.960693	1617.050171	27.450766
784.572571	1252.297974	2559.059814	1625.000488	28.521074
784.885010	1251.257813	2549.400635	1623.588867	28.681826
785.197449	1248.508545	2543.456299	1612.294800	28.092735
785.509766	1253.486938	2531.642334	1613.855103	28.194393
785.822083	1258.167969	2517.079102	1609.173950	27.881712
786.134277	1256.904785	2512.323486	1612.220337	28.302553
786.446533	1251.406372	2522.948975	1609.768555	28.183262
786.758606	1254.081421	2530.007813	1610.957397	27.969950
787.070740	1251.852173	2538.106689	1610.734375	27.901337
787.382690	1259.356812	2545.685547	1613.186401	27.506933
787.694641	1254.452759	2565.004150	1626.040894	28.353573
788.006653	1259.654053	2594.502197	1627.378296	27.548021
788.318481	1259.208130	2641.759033	1648.703125	28.172199
788.630310	1259.505493	2677.275635	1657.173462	28.048832
788.942017	1258.390869	2703.504639	1678.052734	29.040058
789.253784	1249.548828	2712.197998	1681.470703	29.530107
789.565430	1254.675659	2702.984375	1677.829712	29.217117
789.877014	1257.796387	2677.721436	1664.975220	28.676079
790.188538	1255.047241	2636.854980	1659.774048	29.289661
790.500061	1253.784058	2601.115234	1653.978516	29.702753
790.811462	1250.291870	2567.158936	1648.108521	30.209326
791.122925	1252.000854	2541.153076	1631.613403	29.446682
791.434204	1249.400146	2520.051025	1622.994263	29.401791
791.745483	1240.260986	2497.834717	1619.799316	30.180204
792.056702	1240.558228	2486.912109	1616.529907	30.165724
792.367920	1243.158813	2467.593506	1605.087280	29.558821
792.678955	1252.149414	2465.364258	1597.880005	28.497063
792.990112	1253.412720	2447.680420	1597.062622	28.774948
793.301086	1256.384766	2444.485107	1593.942017	28.411510
793.612122	1258.093750	2443.519287	1596.468140	28.544550
793.922974	1257.796509	2437.129150	1596.914063	28.755039
794.233826	1251.034790	2429.996094	1603.304077	29.879631
794.544556	1250.960571	2420.634033	1603.675659	30.155005
794.855286	1245.685059	2431.110840	1605.756226	30.374838
795.166016	1252.446655	2436.237549	1608.505371	30.077839
795.476624	1250.737671	2450.801025	1610.437134	29.973373
795.787292	1248.731567	2472.125732	1610.734375	29.590038
796.097778	1240.335449	2504.001709	1619.873657	30.034687
796.408264	1236.843140	2522.651855	1631.762085	30.713663
796.718689	1240.409668	2534.317383	1639.340942	30.831509
797.029053	1243.976196	2542.936523	1630.796021	29.779186
797.339355	1243.455933	2536.174561	1625.149048	29.526388
797.649658	1242.118530	2522.205811	1622.771484	29.736485
797.959839	1241.375610	2490.850098	1620.765259	30.363937
798.270020	1242.713013	2476.509766	1608.653931	29.659740
798.580078	1245.387817	2456.447998	1596.319702	28.977245
798.890137	1245.536499	2457.859863	1589.038086	28.334156
799.200195	1242.935791	2438.021240	1592.604492	29.258886
799.510071	1240.260864	2433.860107	1590.969849	29.382473
799.820007	1243.753174	2414.912842	1591.415649	29.685318
800.129883	1245.462158	2397.897461	1591.415649	30.019342
800.439575	1250.514771	2378.950439	1586.362915	29.762276
800.749329	1255.270142	2359.111572	1582.722168	29.664770
801.058960	1260.917114	2365.872803	1574.400269	28.370653
801.368591	1261.363037	2357.031006	1566.672852	27.865177
801.678162	1250.514771	2361.043213	1569.570679	28.730099
801.987671	1244.421997	2343.730713	1564.518188	29.117952
802.297119	1247.394043	2330.058838	1575.515015	30.306793
802.606506	1254.824341	2309.774414	1571.056763	29.976055
802.915894	1259.059692	2309.922852	1577.892578	30.340096
803.225159	1259.802612	2308.511230	1570.610962	29.637245
803.534424	1255.567383	2315.049805	1567.713257	29.462111
803.843628	1253.412598	2312.597900	1572.096802	30.087673
804.152771	1246.948242	2319.136475	1572.171265	30.332642
804.461792	1252.520874	2314.529541	1573.583008	30.231592
804.770874	1253.041138	2306.356445	1563.700684	29.493500
805.079773	1256.236084	2305.910889	1572.097046	30.091316
805.388733	1256.384644	2319.879639	1579.824341	30.412903
805.697571	1255.195801	2337.786377	1588.592163	30.796164
806.006470	1250.663452	2359.408447	1586.660278	30.304247
806.315125	1241.746948	2371.742920	1592.084351	31.003420
806.623901	1240.855469	2378.281494	1588.517944	30.565722
806.932495	1244.719238	2371.594238	1595.130859	31.095873
807.241150	1249.177368	2349.229004	1585.991699	30.618048
807.549622	1256.161743	2335.706055	1580.939087	30.084669
807.858154	1256.013184	2325.972412	1576.406372	29.944429
808.166565	1252.818237	2317.576172	1578.338257	30.572208
808.474915	1245.982300	2304.201660	1574.103149	31.006884
808.783264	1247.319824	2283.842773	1565.186890	30.666670
809.091492	1254.750000	2273.366211	1557.310669	29.703108
809.399719	1258.167969	2254.790283	1554.710083	29.754713
809.707825	1261.288574	2233.688232	1553.744141	30.075655
810.015930	1254.601440	2214.444092	1554.189941	31.212252
810.323975	1258.242188	2212.437744	1553.967163	30.992073
810.632080	1249.251587	2212.883789	1552.258179	31.444216
810.939880	1251.183472	2209.540039	1552.703979	31.462246
811.247864	1246.576660	2196.165527	1549.286011	31.877937
811.555664	1249.028687	2180.933350	1546.833984	31.956627
811.863464	1252.520996	2172.462891	1543.787598	31.661413
812.171143	1250.366211	2157.602539	1541.707153	32.113014
812.478882	1253.115479	2158.865479	1534.128296	31.025429
812.786438	1245.759399	2165.329590	1529.744507	30.882374
813.094055	1245.833862	2180.115967	1532.419312	30.674402
813.401489	1246.576782	2180.413330	1532.270630	30.593561
813.708984	1248.583008	2172.685791	1530.933228	30.553984
814.016357	1253.709839	2163.397705	1525.806274	29.910967
814.323730	1251.629395	2160.277100	1528.258423	30.444035
814.630981	1254.453003	2156.859375	1523.428711	29.806496
814.938232	1252.669556	2148.314697	1528.407227	30.786486
815.245361	1251.406372	2137.540771	1531.750610	31.636763
815.552490	1250.514771	2132.413818	1538.586426	32.664925
815.859619	1249.697510	2134.048584	1540.443970	32.876816
816.166565	1257.424927	2140.587158	1539.478027	31.936726
816.473572	1259.133911	2157.379639	1540.964233	31.375637
816.780457	1256.904785	2166.370361	1541.187012	31.258162
817.087341	1255.493042	2186.431885	1541.187012	30.688801
817.394043	1255.493042	2191.113037	1541.261230	30.543190
817.700806	1246.353882	2212.289063	1539.923828	30.392303
818.007507	1249.920288	2214.518311	1538.066406	29.872145
818.314209	1244.570435	2212.511963	1541.707031	30.697784
818.620667	1253.858398	2217.118896	1554.561523	31.217218
818.927246	1239.517944	2239.929688	1569.496460	32.984272
819.233704	1241.226929	2290.009766	1579.007202	32.206882
819.540161	1240.037964	2332.956787	1587.403320	31.783272
819.846497	1250.737671	2397.748779	1614.226563	31.690094
820.152832	1253.858398	2468.113525	1644.170532	32.144161
820.458984	1259.876953	2563.072510	1675.823608	31.917440
820.765259	1259.653931	2655.430420	1701.903931	31.684872
821.071350	1264.260864	2761.757813	1740.021118	31.770365
821.377502	1265.969849	2929.236084	1792.924805	31.681936
821.683472	1263.443481	3259.065674	1907.573730	32.277164
821.989441	1262.254639	3916.422119	2124.834961	32.499092
822.295349	1255.270142	5003.693848	2487.952393	32.885349
822.601196	1257.796387	6422.949707	2949.074951	32.744015
822.907043	1245.759399	7770.726563	3379.584717	32.702465
823.212769	1251.034912	8622.682617	3645.068359	32.476234
823.518494	1249.994629	8667.188477	3640.684814	32.231735
823.824097	1252.000977	8045.498535	3426.172852	32.003719
824.129700	1248.880127	6992.332031	3083.637451	31.945200
824.435242	1249.623047	5905.282715	2753.212891	32.295956
824.740723	1257.053345	4974.492676	2467.890625	32.571808
825.046082	1259.431152	4302.275879	2253.304443	32.662636
825.351501	1255.344604	3844.050781	2097.417236	32.528709
825.656799	1252.743774	3543.571045	1999.114746	32.580853
825.962036	1245.833740	3344.216797	1943.536255	33.249531
826.267212	1245.462280	3259.734619	1917.084473	33.343166
826.572449	1243.901978	3253.567627	1918.050415	33.545303
826.877502	1254.229980	3404.178955	1955.647461	32.624844
827.182495	1258.688110	3678.579102	2043.176270	32.418324
827.487488	1256.830566	4028.322021	2164.958252	32.766750
827.792419	1248.137207	4316.988281	2272.771729	33.388214
828.097290	1239.889526	4435.277832	2311.483154	33.535633
828.402100	1242.564453	4323.824219	2266.307373	33.224815
828.706848	1245.833618	4012.570068	2168.004883	33.330654
829.011597	1252.149414	3619.954346	2035.671509	33.090652
829.316223	1249.697388	3244.131104	1910.322876	33.123463
829.620789	1242.713013	2938.152344	1804.664429	33.144886
829.925354	1239.220825	2691.095947	1725.532104	33.495392
830.229797	1246.056519	2515.518555	1674.114624	33.719646
830.534302	1252.966675	2402.801514	1630.870483	32.865921
830.838562	1251.257690	2320.994141	1608.208130	33.368073
831.142944	1246.725220	2267.347412	1583.688354	33.015461
831.447144	1244.421997	2216.078369	1566.895874	33.188057
831.751404	1243.307495	2193.490723	1564.592407	33.812943
832.055542	1247.394043	2186.283447	1564.146484	33.736927
832.359619	1249.994751	2193.490723	1568.010376	33.706093
832.663635	1246.725464	2209.837158	1572.245605	33.798794
832.967651	1242.267212	2247.880127	1589.855347	34.564804
833.271545	1239.963745	2348.337402	1632.579468	35.422688
833.575439	1242.415649	2518.639404	1690.238281	35.089664
833.879211	1241.375610	2765.175781	1774.720337	35.000961
834.183044	1241.375610	3020.182861	1859.945679	34.774429
834.486694	1246.279419	3213.889893	1925.480835	34.519100
834.790344	1249.771729	3299.115234	1943.982056	33.874767
835.093933	1249.994629	3252.304688	1916.935913	33.308590
835.397522	1245.982300	3114.101563	1856.304810	32.670425
835.700928	1247.839966	2902.338623	1778.138306	32.051907
836.004395	1250.440552	2681.362305	1706.807983	31.893250
836.307739	1255.195923	2493.599365	1652.418335	32.075363
836.611023	1249.920410	2356.065186	1619.130493	33.378098
836.914307	1255.121582	2269.427979	1593.496094	33.360188
837.217529	1257.424927	2187.695068	1564.072266	32.963257
837.520691	1259.951294	2126.395264	1547.428345	33.178955
837.823730	1247.914185	2072.674561	1523.057129	33.360348
838.126831	1243.530396	2037.529297	1509.459839	33.492420
838.429749	1242.713013	2000.452148	1488.432007	32.427914
838.732727	1245.759399	1966.644165	1482.487915	32.838608
839.035522	1250.068970	1939.375366	1479.515625	33.286598
839.338379	1252.000854	1921.839844	1482.933594	34.475857
839.641113	1256.533325	1928.675781	1479.069946	33.108551
839.943848	1255.195801	1962.929199	1483.899780	32.314991
840.246460	1251.703613	2025.789429	1499.057251	31.954292
840.549072	1245.388062	2084.116943	1520.753784	32.831314
840.851563	1249.400269	2123.869141	1535.688599	32.738537
841.154053	1241.004028	2128.104248	1533.162476	32.934097
841.456482	1251.257813	2104.253174	1525.657837	32.168995
841.758850	1245.610962	2055.807861	1512.283203	32.914497
842.061157	1258.167969	1990.718628	1489.620972	31.595495
842.363403	1258.093628	1929.121582	1462.871948	30.517107
842.665588	1257.350586	1879.784546	1438.649292	29.127380
842.967712	1255.567383	1842.558960	1435.751465	30.696196
843.269775	1255.270264	1815.438477	1426.686523	30.600855
843.571777	1251.777954	1784.825684	1426.983765	32.868690
843.873840	1247.022583	1766.250000	1418.439087	33.013763
844.175659	1237.288940	1748.640259	1420.073608	35.745419
844.477600	1242.787354	1741.655884	1416.804321	34.882332
844.779297	1246.056641	1740.838501	1418.438843	34.840042
845.081116	1255.121460	1729.841797	1429.287109	36.688053
845.382751	1257.202026	1720.628296	1422.005493	35.561962
845.684387	1263.369141	1705.916382	1406.253296	32.286758
845.985962	1259.505493	1700.417847	1387.157593	28.951809
846.287537	1254.527222	1683.551147	1387.677612	31.035656
846.588989	1251.777954	1671.216797	1392.135742	33.463230
846.890381	1248.285767	1658.139526	1393.101685	35.333557
847.191711	1250.514771	1659.848633	1386.191528	33.145744
847.493042	1249.474487	1652.938477	1378.612671	32.007362
847.794250	1250.663452	1658.659668	1376.680786	30.886889
848.095459	1246.502319	1652.195190	1380.692993	33.076912
848.396606	1243.158691	1660.888672	1381.956177	33.226604
848.697693	1247.839966	1655.687500	1378.166870	31.954809
848.998657	1251.703613	1654.573242	1369.993530	29.361835
849.299622	1251.703735	1653.384155	1367.021484	28.708830
849.600464	1254.229980	1654.127075	1365.015259	27.703447
849.901367	1255.938843	1659.551270	1369.176270	28.055981
850.202087	1254.081299	1655.687500	1369.101929	28.640152
850.502808	1248.657227	1651.452271	1368.210449	29.680906
850.803467	1248.062866	1643.204712	1360.631470	28.488150
851.104065	1246.948242	1639.192261	1364.049316	29.854139
851.404663	1247.542603	1632.876587	1360.111450	29.213320
851.705139	1242.267212	1629.235840	1361.225952	30.741184
852.005615	1251.183472	1625.000488	1361.820313	29.596523
852.306030	1254.898560	1622.920044	1364.643677	29.820301
852.606384	1256.087524	1616.604370	1369.250610	31.389126
852.906616	1256.904785	1612.443359	1367.615845	31.138973
853.206909	1251.257813	1609.471191	1368.730469	32.794044
853.506958	1257.722046	1613.186157	1364.495117	30.037651
853.807129	1255.344360	1612.146118	1359.814087	29.279488
854.107178	1257.053345	1606.499023	1358.402344	29.002790
854.407166	1255.790161	1598.846069	1365.089600	31.860533
854.707092	1251.034912	1593.050293	1360.111328	31.892254
855.007019	1250.291870	1593.941895	1359.962769	31.913544
855.306763	1244.570679	1588.071899	1352.532349	31.429777
855.606567	1247.319824	1579.155640	1352.978271	31.840580
855.906250	1244.199097	1572.691406	1348.371460	31.712269
856.205933	1249.771851	1577.966797	1344.210449	28.775154
856.505493	1251.034912	1588.740723	1344.805054	27.766813
856.805054	1259.133789	1587.997681	1355.430176	29.281532
857.104492	1259.505493	1584.951538	1355.132935	29.383501
857.403931	1259.951294	1582.648071	1354.464233	29.288467
857.703308	1253.486816	1587.329102	1347.331177	28.110388
858.002563	1248.062866	1593.273438	1344.730591	28.002539
858.301819	1246.130981	1592.827515	1349.337280	29.768482
858.601013	1246.725342	1587.849243	1347.479858	29.536047
858.900208	1252.372437	1579.750122	1359.591187	32.750782
859.199219	1245.908081	1579.304321	1354.761597	32.649895
859.498291	1251.480835	1580.716187	1351.194946	30.286575
859.797302	1251.035034	1580.047363	1343.170288	28.003588
860.096191	1257.722168	1572.839966	1348.594482	28.837570
860.395020	1251.926636	1570.387817	1354.538696	32.221214
860.693787	1246.130981	1566.821411	1360.631470	35.704369
860.992554	1243.753052	1563.775024	1349.634644	33.085724
861.291260	1247.617065	1560.431274	1343.838989	30.760088
861.589844	1246.279419	1555.007324	1344.210571	31.720861
861.888428	1251.703613	1553.744263	1345.399414	31.020924
862.186890	1246.353882	1550.475098	1350.823608	34.351345
862.485413	1254.824341	1557.087891	1344.433472	29.646027
862.783813	1255.790405	1552.704102	1350.452026	31.881865
863.082153	1260.025513	1548.914551	1355.876099	33.179031
863.380371	1252.520996	1549.731934	1356.098999	34.849998
863.678589	1247.171265	1556.790649	1352.829590	34.125229
863.976746	1247.988647	1568.753540	1332.693481	26.407141
864.274902	1252.223633	1572.765747	1331.133301	24.617567
864.572937	1252.075195	1569.570679	1325.560669	23.145361
864.870911	1254.378540	1563.998047	1338.860718	27.285807
865.168884	1254.527100	1565.484009	1339.157959	27.216267
865.466736	1252.223755	1568.604614	1346.513916	29.802738
865.764587	1252.000854	1563.329224	1345.250854	29.952297
866.062317	1252.000854	1554.487183	1345.325073	30.852375
866.360107	1254.081421	1550.028931	1343.244629	30.128048
866.657715	1251.183472	1551.738159	1340.421021	29.690952
866.955322	1243.381714	1548.245728	1340.346802	31.806013
867.252808	1247.988525	1551.292358	1332.842163	27.976448
867.550293	1249.251587	1553.447144	1332.619263	27.405949
867.847717	1252.818237	1553.001099	1334.253906	27.128687
868.145081	1248.657227	1551.069336	1345.325073	31.965601
868.442383	1246.948242	1542.673218	1351.566528	35.376884
868.739624	1252.075073	1537.769043	1348.445801	33.732155
869.036804	1253.486938	1536.505981	1343.541870	31.819389
869.333984	1254.304199	1536.728882	1339.232300	30.071062
869.631042	1258.167969	1541.781372	1336.260132	27.534721
869.928101	1261.065796	1538.140625	1336.780273	27.326365
870.224976	1256.904907	1536.505859	1332.099243	26.893448
870.521851	1256.756226	1538.586304	1339.901001	29.501740
870.818726	1253.486938	1544.827759	1335.294189	28.079571
871.115479	1253.858521	1549.137329	1329.721558	25.692001
871.412231	1250.291870	1550.846313	1328.161133	25.908539
871.708862	1252.743896	1547.502808	1331.802124	26.821320
872.005493	1250.737671	1549.286011	1345.399414	31.707342
872.302063	1247.988525	1549.434570	1350.229004	33.916676
872.598572	1250.217651	1541.781616	1349.634521	34.097790
872.895020	1253.189697	1544.604980	1356.470459	35.441093
873.191406	1251.852295	1543.936157	1357.287720	36.097656
873.487671	1244.793457	1550.251953	1365.535278	39.528061
873.783997	1243.456055	1540.815430	1357.510742	38.355839
874.080200	1250.068970	1538.363403	1355.133057	36.443329
874.376343	1251.703613	1546.388184	1348.445801	32.829063
874.672424	1253.041016	1553.298340	1348.074219	31.650587
874.968445	1249.103027	1548.394409	1343.467407	31.529268
875.264465	1245.387939	1541.930054	1346.067993	33.951351
875.560364	1245.387939	1544.456421	1338.563477	31.155251
875.856201	1243.530273	1544.456421	1335.517212	30.567945
876.152039	1252.000854	1544.159180	1330.316040	26.805735
876.447754	1248.285645	1541.484253	1333.808228	29.168823
876.743469	1246.353760	1548.988770	1332.099243	28.332970
877.039063	1243.158813	1544.233398	1337.151733	31.219149
877.334595	1250.143433	1543.713257	1342.204346	31.359119
877.630127	1249.920410	1541.112793	1345.176392	32.712387
877.925537	1248.731567	1553.595581	1341.609863	30.465483
878.221008	1251.332031	1558.499634	1349.485962	31.954519
878.516296	1254.972778	1561.100220	1353.721313	32.257328
878.811646	1252.446655	1565.707031	1360.111328	34.369068
879.106812	1248.582886	1583.316772	1348.520142	29.855734
879.401978	1244.942017	1604.715820	1355.578857	30.751778
879.697083	1243.381714	1621.359741	1365.683960	32.356972
879.992126	1246.874023	1653.086914	1384.928345	33.985706
880.287109	1251.035034	1704.281372	1405.436035	34.065582
880.582031	1254.675659	1780.813110	1423.788696	32.142368
880.876892	1251.406372	1904.675903	1464.506470	32.620548
881.171753	1256.830444	2150.097900	1543.118774	32.049564
881.466492	1257.202026	2565.821533	1691.947144	33.221661
881.761230	1255.121582	3110.906250	1886.174316	34.004631
882.055786	1247.171265	3673.526611	2075.646240	34.144833
882.350403	1242.936035	4038.873047	2196.536865	34.106663
882.644958	1243.381836	4124.395996	2216.004395	33.759727
882.939453	1241.375610	3908.545898	2143.559326	33.825500
883.233826	1242.638794	3533.837158	2020.291016	33.940853
883.528137	1246.799683	3113.135498	1889.295288	34.425510
883.822449	1252.966797	2748.234619	1771.748413	34.694897
884.116577	1251.555054	2462.391846	1678.647095	35.272469
884.410828	1252.966919	2254.938965	1599.663452	34.601418
884.704956	1249.028809	2096.005371	1535.614258	33.836292
884.999023	1255.790405	1979.127319	1483.007935	31.412407
885.292969	1249.474609	1894.645142	1448.605835	30.864899
885.586914	1251.480835	1824.057617	1425.571899	30.404842
885.880798	1248.434326	1779.252930	1421.485352	32.600784
886.174622	1246.576660	1744.999390	1415.838379	33.959469
886.468384	1244.644897	1721.965454	1410.711426	34.791405
886.762085	1250.291870	1708.813965	1404.172852	33.560211
887.055664	1250.886230	1692.764526	1393.473267	32.268394
887.349304	1252.595337	1673.371582	1393.473267	33.480484
887.642822	1248.731567	1635.180054	1382.773804	34.685669
887.936340	1248.137085	1602.561035	1378.761353	36.855373
888.229736	1244.867798	1578.041016	1369.399292	37.377403
888.523071	1243.381836	1568.381836	1357.733521	35.185135
888.816284	1245.759399	1554.264282	1357.213501	36.127174
889.109619	1260.174194	1542.301636	1347.331177	30.892771
889.402710	1263.666382	1532.642212	1347.405518	31.132587
889.695862	1263.740601	1521.422485	1335.368530	27.797037
889.988892	1248.582886	1512.803345	1330.687378	31.074238
890.281921	1238.031982	1501.286499	1320.284912	31.244642
>>>>>End Processed Spectral Data<<<<<
