Jaz Data File
++++++++++++++++++++++++++++++++++++
Date: Fri Jun 04 12:01:57 2021
User: jaz
Dark Spectrum Present: Yes
Reference Spectrum Present: Yes
Processed Spectrum Present: Yes
Spectrometers: JAZA3586
Integration Time (usec): 23600 (JAZA3586)
Spectra Averaged: 10 (JAZA3586)
Boxcar Smoothing: 1 (JAZA3586)
Correct for Electrical Dark: No (JAZA3586)
Strobe/Lamp Enabled: Yes (JAZA3586)
Correct for Detector Non-linearity: No (JAZA3586)
Correct for Stray Light: No (JAZA3586)
Number of Pixels in Processed Spectrum: 2048
>>>>>Begin Processed Spectral Data<<<<<
W	D	R	S	P
191.335022	0.000000	0.000000	0.000000	0.000000
191.713211	332.876190	332.950470	344.987549	16305.053711
192.091385	669.244568	678.309509	687.151611	197.541748
192.469528	1008.436523	1024.337280	1032.807861	153.271561
192.847641	1020.176270	1034.219604	1036.745972	117.989792
193.225739	1031.247437	1039.792236	1044.919189	160.000854
193.603790	1047.445435	1044.027466	1051.457764	-117.389282
193.981842	1053.241089	1053.909668	1045.142090	-1211.374878
194.359863	1060.151245	1059.556763	1051.977905	1374.866577
194.737854	1054.578613	1067.209961	1055.247192	5.293015
195.115829	1059.259644	1068.398804	1063.643433	47.967091
195.493774	1058.368042	1066.244019	1062.083130	47.169868
195.871704	1065.798218	1066.169800	1059.705566	-1639.651733
196.249603	1068.398804	1072.708374	1064.386475	-93.102768
196.627457	1071.816772	1069.959106	1055.990234	851.958191
197.005310	1070.330688	1067.209961	1055.321411	480.954437
197.383133	1065.798340	1068.770264	1043.581665	-747.551941
197.760910	1060.671509	1070.182007	1049.600220	-116.411247
198.138687	1054.355713	1072.931274	1050.343384	-21.600042
198.516449	1057.996460	1068.993164	1060.225586	20.270855
198.894180	1062.008789	1072.782715	1064.386475	22.068888
199.271866	1062.751831	1063.940674	1059.036621	-312.506409
199.649536	1057.699219	1058.516602	1056.807495	-109.094978
200.027191	1056.956177	1058.070801	1052.943848	-359.971527
200.404816	1063.494995	1068.324585	1052.720947	-223.084122
200.782410	1061.785889	1072.782715	1046.033691	-143.243118
201.159988	1061.265869	1075.829102	1045.067749	-111.226135
201.537537	1051.086304	1080.807251	1050.566284	-1.749673
201.915070	1049.971802	1089.203613	1053.761230	9.659072
202.292557	1044.324829	1097.153931	1051.309204	13.220696
202.670029	1048.411377	1091.729858	1041.278320	-16.466543
203.047485	1048.337036	1088.237549	1041.501343	-17.131844
203.424911	1046.256714	1081.847656	1040.981079	-14.822970
203.802292	1046.330933	1088.088989	1046.702515	0.889845
204.179688	1045.216431	1085.191162	1045.959351	1.858474
204.557037	1043.656128	1093.364502	1049.377441	11.509758
204.934357	1039.643677	1090.689575	1053.835571	27.802223
205.311661	1042.318604	1090.912598	1058.739502	33.792034
205.688934	1040.312500	1084.893921	1052.275024	26.832981
206.066177	1036.745850	1083.259277	1043.656128	14.856524
206.443390	1029.167114	1081.550293	1034.293823	9.786938
206.820587	1028.498291	1078.132446	1038.157593	19.460999
207.197769	1038.083374	1074.120117	1042.913086	13.402187
207.574921	1039.495117	1074.120117	1046.182251	19.313023
207.952042	1038.603394	1069.587646	1046.999634	27.098412
208.329147	1033.922363	1065.723877	1040.981079	22.196163
208.706223	1047.073975	1073.897095	1044.844849	-8.310465
209.083267	1058.516479	1079.321289	1041.501221	-81.785217
209.460297	1060.745605	1083.705200	1048.411499	-53.720924
209.837280	1047.519653	1081.030273	1046.182251	-3.990981
210.214264	1037.191772	1080.956055	1042.838745	12.903153
210.591217	1033.699463	1083.928101	1040.758179	14.053170
210.968124	1034.962524	1086.008667	1034.739746	-0.436425
211.345016	1036.820190	1089.797974	1040.981079	7.854026
211.721893	1035.259766	1086.231567	1038.454834	6.268306
212.098724	1032.584839	1081.699097	1050.046143	35.552414
212.475555	1038.380493	1079.990112	1053.018188	35.178635
212.852356	1040.758179	1084.151001	1059.110962	42.294514
213.229126	1043.730225	1084.299683	1054.132690	25.641127
213.605865	1037.117310	1084.225464	1048.931519	25.078905
213.982590	1034.814087	1081.773315	1042.095703	15.506251
214.359283	1029.092773	1084.671143	1038.752075	17.379606
214.735931	1026.937866	1086.825928	1035.557007	14.392085
215.112579	1023.668640	1087.048828	1029.761353	9.612961
215.489197	1034.219604	1082.144897	1029.538452	-9.767603
215.865799	1041.947144	1073.302856	1027.086548	-47.393581
216.242355	1040.535278	1072.485474	1027.160767	-41.860500
216.618896	1030.950195	1077.612305	1025.005981	-12.738845
216.995407	1027.532227	1086.157227	1024.783081	-4.689374
217.371902	1035.334106	1093.959106	1029.984253	-9.125549
217.748367	1042.169922	1095.593628	1024.708862	-32.684105
218.124802	1033.996704	1095.667969	1027.829590	-9.999980
218.501236	1036.151489	1094.627808	1029.984253	-10.546554
218.877609	1033.030762	1093.290283	1032.213379	-1.356438
219.253983	1046.628296	1088.906372	1031.321777	-36.204388
219.630295	1043.433105	1087.494751	1028.721191	-33.389389
220.006592	1043.730347	1089.723755	1031.841919	-25.848112
220.382889	1037.934692	1097.897095	1032.584961	-8.921810
220.759140	1038.900635	1103.023926	1034.516846	-6.836501
221.135391	1035.482788	1107.704956	1041.575562	8.436154
221.511581	1040.089478	1107.036255	1042.987305	4.328554
221.887772	1039.346436	1109.191040	1043.135864	5.425514
222.263931	1051.680786	1100.348999	1038.677612	-26.718002
222.640060	1055.395874	1098.862915	1035.705566	-45.299397
223.016159	1053.018188	1099.754517	1040.089478	-27.663086
223.392212	1047.742676	1101.092163	1042.912964	-9.052968
223.768265	1044.399048	1101.537842	1045.290649	1.560414
224.144302	1051.309204	1101.612061	1037.934692	-26.587976
224.520294	1045.810791	1106.887573	1037.637573	-13.381873
224.896286	1043.655884	1108.893921	1035.036987	-13.211459
225.272217	1040.535278	1103.321167	1040.683960	0.236807
225.648148	1041.278320	1103.469727	1040.089478	-1.911587
226.024048	1036.671509	1106.218872	1042.095703	7.799281
226.399902	1034.665405	1110.974243	1036.597290	2.531666
226.775772	1038.231934	1114.243530	1040.238159	2.639368
227.151581	1044.844849	1113.129028	1042.095703	-4.026036
227.527374	1038.306274	1121.450928	1053.686890	18.498623
227.903137	1040.089478	1130.664429	1050.714722	11.730886
228.278870	1036.894531	1151.915161	1050.268921	11.627818
228.654572	1044.250366	1160.682861	1044.919189	0.574430
229.030273	1037.934692	1170.713745	1044.101929	4.644736
229.405930	1039.643677	1175.543335	1046.108032	4.756712
229.781555	1034.293823	1182.304932	1041.352539	4.769044
230.157181	1031.618896	1178.664063	1036.151367	3.082366
230.532761	1029.464233	1168.113159	1038.900635	6.805968
230.908325	1035.185425	1159.865356	1045.216309	8.045307
231.283859	1036.597168	1160.162720	1048.485718	9.621249
231.659332	1038.603394	1159.865479	1045.810913	5.943754
232.034821	1030.504395	1153.475464	1037.340210	5.558881
232.410263	1031.916138	1146.936890	1039.940796	6.976705
232.785690	1026.863647	1142.850098	1035.631348	7.559245
233.161087	1033.179321	1145.450684	1034.145142	0.860255
233.536469	1028.126709	1156.744751	1033.476563	4.159489
233.911804	1029.464233	1166.403931	1036.894531	5.425963
234.287140	1028.275391	1162.688965	1039.569336	8.402385
234.662430	1041.501343	1156.373169	1037.711792	-3.298939
235.037704	1047.296997	1154.887085	1033.699585	-12.638165
235.412933	1051.160645	1174.354370	1033.922363	-13.992824
235.788162	1045.885132	1184.682495	1031.990479	-10.010747
236.163345	1046.330933	1188.769165	1032.733521	-9.546182
236.538513	1045.885132	1182.082031	1030.652954	-11.183939
236.913635	1047.965698	1184.236694	1036.077148	-8.724196
237.288742	1043.284546	1191.890015	1033.550903	-6.549990
237.663834	1052.498047	1201.326416	1037.266113	-10.234563
238.038879	1060.076904	1202.218140	1029.390015	-21.589012
238.413910	1062.083130	1205.115845	1030.132935	-22.337683
238.788910	1046.999634	1204.075562	1031.173218	-10.075647
239.163879	1038.603516	1205.115845	1038.900757	0.178510
239.538834	1041.649780	1206.304565	1051.977905	6.272593
239.913757	1041.649780	1222.056763	1055.470215	7.660698
240.288651	1043.433105	1243.901733	1054.652832	5.596749
240.663528	1033.328003	1266.044067	1044.324707	4.725374
241.038361	1046.108032	1284.025269	1043.433105	-1.124310
241.413177	1041.129761	1313.820679	1044.621948	1.280639
241.787979	1049.377319	1341.981445	1052.572388	1.091942
242.162735	1029.984375	1374.674683	1057.550659	7.997406
242.537476	1035.854248	1396.742554	1054.207031	5.085447
242.912170	1031.693237	1413.683594	1058.962402	7.138705
243.286865	1038.603394	1415.838379	1060.225586	5.731757
243.661514	1038.083374	1396.816895	1063.792114	7.166529
244.036148	1036.448730	1379.950195	1053.463989	4.953475
244.410751	1043.581787	1369.027710	1049.971802	1.963464
244.785339	1043.135864	1368.136108	1047.891235	1.463190
245.159882	1045.959351	1387.231812	1050.714722	1.393424
245.534378	1038.677612	1406.624878	1047.594116	2.423310
245.908890	1037.414551	1460.345703	1049.823120	2.933945
246.283356	1037.488892	1513.174927	1047.445557	2.093117
246.657791	1040.609619	1593.050415	1053.092529	2.259592
247.032196	1042.318604	1644.616577	1053.315430	1.825812
247.406586	1040.089478	1684.591187	1057.996460	2.778423
247.780960	1042.392944	1695.588257	1050.417480	1.228505
248.155289	1040.906860	1689.718262	1056.213257	2.359144
248.529602	1040.163696	1656.876465	1055.915894	2.554219
248.903870	1043.358887	1600.926392	1058.219360	2.665233
249.278122	1033.996704	1551.515015	1051.680664	3.417069
249.652344	1038.380493	1511.094360	1049.228638	2.294865
250.026550	1032.956421	1490.438354	1048.708496	3.443213
250.400711	1045.364990	1467.255859	1046.405273	0.246576
250.774857	1043.953247	1468.890625	1049.303101	1.258975
251.148987	1049.005737	1479.515747	1046.702515	-0.534999
251.523071	1041.947144	1506.859375	1052.275146	2.221495
251.897125	1043.953247	1519.639282	1045.810913	0.390524
252.271164	1042.169922	1524.097290	1049.600220	1.541788
252.645187	1041.426880	1522.388306	1045.364868	0.818774
253.019165	1042.615723	1513.694946	1049.748901	1.514221
253.393112	1039.123657	1494.599243	1057.401978	4.013019
253.767044	1035.557129	1473.497192	1060.002563	5.581913
254.140930	1035.036743	1459.454102	1068.324585	7.843186
254.514801	1036.522949	1451.875122	1059.928345	5.635072
254.888657	1039.717896	1445.559570	1060.671509	5.163002
255.262466	1030.578735	1443.627563	1050.417603	4.803032
255.636276	1034.962524	1466.512695	1051.160522	3.753445
256.010010	1036.077148	1491.404175	1056.510376	4.487594
256.383759	1036.968750	1527.961060	1053.909790	3.450368
256.757446	1029.910034	1558.053711	1057.921997	5.303853
257.131134	1030.801758	1603.229858	1054.652832	4.166650
257.504791	1025.154663	1639.712402	1060.597046	5.767137
257.878418	1029.166992	1687.191895	1055.247192	3.963406
258.252014	1030.652954	1750.720703	1061.265747	4.251377
258.625580	1047.519775	1845.530884	1060.597046	1.638733
258.999115	1048.114136	1967.387329	1072.113892	2.610732
259.372650	1044.844849	2079.658936	1077.315063	3.137782
259.746124	1035.705688	2176.846924	1089.649414	4.727173
260.119598	1032.510620	2233.762695	1080.361694	3.983433
260.493042	1033.476440	2257.316650	1067.730103	2.798867
260.866425	1038.826294	2221.056885	1058.145020	1.634091
261.239838	1034.368164	2145.639648	1066.466919	2.888471
261.613159	1040.981079	2043.324829	1068.027222	2.698290
261.986511	1035.036987	1961.814819	1073.228394	4.120881
262.359802	1045.885132	1899.400391	1057.550659	1.366763
262.733063	1038.752075	1864.849609	1059.185181	2.473449
263.106293	1046.182251	1841.592896	1050.566284	0.551166
263.479523	1036.300049	1828.144165	1058.070679	2.749358
263.852692	1039.197876	1818.782227	1054.355469	1.944317
264.225861	1030.430054	1814.546875	1063.197632	4.178916
264.598969	1028.572510	1811.277344	1069.290405	5.202203
264.972076	1025.600464	1831.487915	1076.423462	6.306464
265.345154	1032.436279	1867.673340	1069.216187	4.403529
265.718201	1041.203979	1914.112305	1068.398804	3.115427
266.091217	1048.560059	1966.272827	1064.683716	1.756939
266.464203	1045.736450	2006.321899	1063.123291	1.810025
266.837158	1038.900635	2048.600342	1063.123413	2.399008
267.210114	1037.637451	2066.804443	1062.231812	2.389735
267.583038	1042.467163	2088.649414	1068.101563	2.450280
267.955902	1049.748901	2101.132568	1066.615601	1.604238
268.328766	1043.953247	2119.633545	1070.925171	2.507429
268.701569	1040.238159	2127.435547	1067.804443	2.535536
269.074371	1041.872803	2149.652100	1068.027222	2.360977
269.447144	1048.039917	2176.921143	1071.742432	2.099647
269.819885	1052.943848	2236.809326	1075.308960	1.889160
270.192596	1049.600220	2309.477295	1082.367798	2.600855
270.565277	1044.993530	2418.330811	1077.686646	2.380560
270.937927	1044.176147	2520.273926	1085.042603	2.768547
271.310577	1037.860352	2609.363037	1089.500854	3.286059
271.683136	1040.386597	2676.086670	1097.376953	3.484157
272.055725	1038.454956	2691.987305	1096.931030	3.536434
272.428284	1044.250488	2677.870117	1097.005371	3.229325
272.800812	1050.491821	2610.105957	1086.082886	2.282043
273.173279	1051.086304	2557.648438	1076.423462	1.681786
273.545776	1051.606445	2520.645752	1072.262695	1.406106
273.918152	1041.352661	2505.116455	1071.593872	2.065990
274.290558	1039.792358	2496.125488	1076.795166	2.540820
274.662964	1034.888306	2479.258545	1067.507202	2.258347
275.035278	1037.340210	2478.961426	1075.457642	2.644067
275.407593	1041.055298	2495.976807	1081.476074	2.778210
275.779907	1046.256470	2541.078857	1095.444946	3.290590
276.152161	1052.275146	2595.468506	1097.599854	2.937073
276.524384	1049.228882	2642.799072	1096.262329	2.951451
276.896606	1049.005737	2662.861084	1091.952759	2.661144
277.268799	1040.609497	2668.062012	1096.039429	3.405932
277.640930	1039.643677	2674.006104	1085.934204	2.832329
278.013031	1041.055420	2686.712158	1087.866089	2.844498
278.385162	1041.501343	2685.746094	1082.070557	2.467346
278.757233	1039.940918	2688.346680	1091.432739	3.123735
279.129272	1030.653076	2707.962646	1084.076660	3.185076
279.501282	1029.166992	2754.401611	1083.036499	3.122445
279.873230	1024.857422	2820.977295	1082.367798	3.201923
280.245178	1031.544678	2899.589600	1094.107544	3.349109
280.617126	1031.098755	3000.195313	1103.321167	3.667794
280.988983	1034.665405	3104.590820	1115.803955	3.919878
281.360870	1033.848022	3212.032227	1116.695679	3.803519
281.732697	1033.848022	3280.316406	1115.209473	3.621749
282.104492	1035.779907	3309.517334	1109.859741	3.258065
282.476288	1035.259888	3317.616211	1112.163086	3.369465
282.848053	1037.043091	3302.235596	1115.432373	3.460602
283.219757	1032.361938	3302.532959	1116.398315	3.701764
283.591461	1034.591064	3273.034912	1109.191040	3.332671
283.963135	1040.535278	3293.171143	1107.927856	2.991721
284.334747	1051.234863	3342.582275	1109.413940	2.539077
284.706360	1043.358887	3414.135986	1114.838013	3.015008
285.077942	1035.185425	3507.237061	1114.540894	3.210105
285.449524	1030.504395	3572.846436	1111.420044	3.182721
285.821014	1039.494995	3608.883545	1121.525269	3.192599
286.192535	1044.473267	3647.223389	1130.367188	3.300122
286.563995	1038.826416	3638.307373	1139.358032	3.867373
286.935425	1037.711792	3633.254639	1133.933960	3.707208
287.306824	1032.510620	3557.019775	1132.447754	3.958676
287.678223	1039.420776	3493.416748	1122.119751	3.369972
288.049561	1039.940918	3447.125977	1117.438599	3.219432
288.420898	1044.844849	3433.825439	1106.739014	2.590819
288.792145	1040.981079	3459.682861	1115.135254	3.065867
289.163452	1035.259766	3535.843750	1116.844238	3.262617
289.534668	1031.990601	3649.823975	1122.119751	3.442891
289.905914	1027.309448	3771.383545	1121.079468	3.417182
290.277039	1035.779907	3861.215088	1127.246582	3.237260
290.648193	1039.123535	3889.301758	1133.487915	3.310824
291.019318	1049.823120	3887.518311	1134.008179	2.966670
291.390381	1045.810791	3833.871826	1133.933838	3.160729
291.761475	1048.931519	3776.138672	1136.385864	3.206737
292.132507	1043.507446	3726.653076	1134.156738	3.378471
292.503510	1043.953125	3729.625000	1130.664551	3.228668
292.874481	1042.318481	3774.726807	1128.806885	3.165281
293.245422	1043.284546	3854.379150	1128.807007	3.042319
293.616364	1032.362183	3959.146240	1137.648926	3.597353
293.987213	1029.687134	4076.841553	1144.633423	3.772250
294.358093	1030.801636	4187.701172	1145.970825	3.648174
294.728943	1046.108032	4299.229004	1135.345581	2.743136
295.099731	1049.154419	4392.256348	1129.029907	2.389263
295.470490	1050.269043	4482.460449	1131.853394	2.377034
295.841248	1039.346313	4557.431641	1150.429077	3.157478
296.211975	1040.906860	4656.551758	1156.596191	3.199687
296.582642	1034.962769	4767.262695	1165.661011	3.501815
296.953308	1040.832520	4819.571777	1163.952148	3.258220
297.323883	1036.077271	4811.621582	1160.236938	3.288523
297.694519	1039.718018	4707.003418	1155.630127	3.160706
298.065063	1040.535278	4593.543457	1145.227661	2.946584
298.435608	1037.563232	4461.878906	1142.552856	3.066003
298.806122	1036.745972	4307.403320	1139.506470	3.141891
299.176575	1038.380493	4158.352051	1144.559082	3.403191
299.547028	1043.061523	4058.489014	1135.865601	3.077642
299.917450	1043.135864	4026.687500	1125.091797	2.746925
300.287872	1038.529175	4027.356201	1116.992798	2.625231
300.658234	1032.807739	4006.179932	1118.776001	2.891272
301.028564	1031.916138	3978.985107	1122.193970	3.063309
301.398865	1032.733521	3939.381592	1122.119629	3.075230
301.769135	1035.928589	3901.487061	1125.314819	3.119330
302.139374	1032.213379	3858.911865	1129.549927	3.443471
302.509583	1028.126831	3827.035889	1130.515869	3.658176
302.879791	1024.708862	3779.333740	1128.658325	3.773634
303.249939	1030.578735	3754.145264	1123.902954	3.426545
303.620087	1030.504395	3714.541748	1118.107300	3.263848
303.990173	1036.745850	3713.650146	1121.302368	3.158743
304.360260	1036.448608	3702.207275	1125.314697	3.333613
304.730286	1043.581665	3699.160889	1130.664429	3.279238
305.100281	1044.622070	3683.780273	1124.497314	3.026542
305.470276	1050.789185	3688.832764	1121.896729	2.695465
305.840179	1045.736572	3707.780273	1116.026855	2.640463
306.210144	1037.860474	3729.847900	1117.661499	2.964391
306.579987	1026.789429	3758.677490	1117.438599	3.318187
306.949890	1034.516724	3786.243408	1118.850220	3.064749
307.319702	1038.603394	3849.772461	1122.491089	2.984086
307.689484	1046.628052	3937.152588	1124.125854	2.681098
308.059265	1039.792358	4054.105469	1132.967896	3.091104
308.429016	1047.074097	4150.252930	1128.807007	2.633845
308.798737	1047.891235	4218.908691	1132.670776	2.673575
309.168396	1053.984009	4255.019531	1132.967896	2.467448
309.538055	1050.789063	4263.415527	1134.825562	2.615819
309.907684	1041.203979	4255.019531	1130.664551	2.783625
310.277313	1037.117432	4277.161621	1132.224976	2.935378
310.646851	1033.402344	4276.566895	1132.819336	3.065432
311.016388	1038.826416	4261.706543	1130.590210	2.847260
311.385895	1033.996704	4211.329590	1123.085571	2.803888
311.755371	1040.386719	4171.577637	1126.131958	2.738423
312.124817	1037.191772	4123.280762	1131.184570	3.045693
312.494232	1040.906860	4063.318359	1133.859497	3.075446
312.863617	1035.928589	4037.015625	1133.190796	3.240899
313.232971	1039.866577	4060.346436	1126.206299	2.858477
313.602295	1039.272217	4130.190918	1128.138184	2.875067
313.971619	1034.293945	4208.654785	1126.280640	2.897802
314.340820	1031.693359	4238.152344	1139.060669	3.348470
314.710083	1023.519958	4234.660156	1139.506470	3.612004
315.079285	1030.578735	4169.720215	1145.970825	3.675912
315.448486	1035.111206	4113.175781	1135.196899	3.251579
315.817596	1048.114258	4015.913330	1133.785278	2.886685
316.186707	1042.541626	3934.700439	1117.290039	2.584520
316.555786	1044.473511	3848.583740	1115.729736	2.541135
316.924866	1041.278320	3794.491455	1101.909302	2.202190
317.293884	1050.714844	3779.556396	1108.522339	2.118390
317.662872	1048.782837	3791.370361	1114.020630	2.378695
318.031830	1048.485596	3829.933594	1118.924683	2.532461
318.400757	1042.690063	3850.812744	1127.098022	3.005850
318.769684	1039.792114	3885.438232	1124.274536	2.968831
319.138550	1042.615723	3881.574219	1131.184570	3.119766
319.507416	1055.172852	3854.528076	1120.856567	2.346387
319.876190	1060.002563	3818.342529	1120.485107	2.192715
320.244995	1058.442261	3764.027344	1122.714111	2.375525
320.613770	1046.851074	3738.615967	1126.949341	2.975678
320.982483	1047.222534	3720.485596	1131.778931	3.163040
321.351166	1043.656128	3756.374023	1124.125854	2.966388
321.719818	1043.656006	3813.289795	1131.927734	3.187126
322.088440	1037.340210	3912.855469	1128.955444	3.186046
322.457062	1043.358765	4059.603516	1137.723267	3.128543
322.825623	1044.101807	4206.054199	1141.958496	3.094819
323.194183	1046.776733	4325.904785	1143.890503	2.961573
323.562653	1042.392944	4377.395996	1148.348511	3.177076
323.931183	1040.535278	4400.949707	1142.329956	3.029230
324.299591	1033.848145	4369.148926	1152.880981	3.568879
324.668060	1038.454956	4327.984863	1153.104004	3.485272
325.036407	1038.974976	4261.112793	1161.797363	3.811829
325.404755	1046.925415	4197.212402	1153.921265	3.396384
325.773102	1039.197876	4136.507324	1153.327026	3.684783
326.141388	1039.792358	4058.042969	1146.565430	3.537581
326.509674	1033.030762	3998.155029	1148.125610	3.881620
326.877899	1034.516724	3927.121826	1141.438354	3.696378
327.246124	1035.334106	3899.183838	1139.729492	3.645282
327.614288	1035.705566	3859.580811	1137.723389	3.612689
327.982422	1033.922363	3845.166016	1131.556274	3.472979
328.350525	1029.835693	3859.580811	1136.311523	3.762736
328.718628	1028.646851	3886.180908	1142.255737	3.975766
329.086700	1031.470337	3941.982422	1152.658081	4.163795
329.454712	1030.504395	3972.074951	1151.171997	4.102149
329.822693	1035.928589	4011.009521	1151.692261	3.891110
330.190674	1038.900635	4054.030518	1156.670532	3.905964
330.558563	1039.346313	4091.181641	1163.209106	4.058633
330.926483	1042.095703	4153.447754	1167.518677	4.031140
331.294312	1038.454834	4217.793457	1166.106934	4.015052
331.662231	1045.810913	4315.798828	1171.382446	3.840122
332.029999	1037.563354	4419.080078	1179.184204	4.188087
332.397766	1039.866577	4477.259277	1190.701172	4.388052
332.765503	1038.008911	4521.023438	1192.707275	4.441508
333.133240	1050.046021	4516.490723	1195.530762	4.196944
333.500916	1056.807617	4523.697754	1195.456421	3.999227
333.868561	1059.185425	4501.927246	1194.490601	3.930158
334.236176	1052.498047	4483.129395	1189.289429	3.987353
334.603790	1046.108032	4454.968262	1195.010742	4.368108
334.971344	1037.637451	4432.603027	1197.462524	4.707708
335.338867	1035.036987	4421.086426	1204.967163	5.018538
335.706360	1028.349731	4408.529297	1202.589478	5.154748
336.073853	1035.705688	4428.070801	1203.183960	4.936917
336.441284	1033.476563	4444.714355	1207.642090	5.105640
336.808655	1032.139160	4477.927734	1213.660645	5.267923
337.176086	1029.984375	4515.673340	1223.988647	5.565737
337.543396	1027.383667	4534.843750	1217.598633	5.423154
337.910706	1040.386597	4550.596191	1225.103149	5.262266
338.277954	1044.324829	4539.970215	1220.942383	5.052502
338.645264	1047.519775	4523.326660	1227.703857	5.183950
339.012421	1042.690063	4476.812988	1225.697632	5.329092
339.379669	1041.352539	4394.783203	1221.759644	5.379777
339.746796	1043.953247	4311.415527	1218.267456	5.334850
340.113953	1037.043091	4252.196289	1210.317017	5.389290
340.481018	1033.848022	4224.778320	1214.403687	5.658402
340.848114	1035.854248	4239.119141	1218.044556	5.687644
341.215118	1040.981079	4283.700684	1221.239502	5.558866
341.582153	1044.101807	4399.093262	1233.796631	5.654108
341.949066	1042.095703	4558.769043	1242.490112	5.698409
342.316010	1041.724121	4764.958984	1251.629395	5.637712
342.682922	1035.185547	4975.161133	1262.328979	5.765098
343.049835	1030.207153	5239.382324	1280.458862	5.945386
343.416656	1030.132935	5514.970215	1305.796021	6.146557
343.783478	1031.916260	5748.875488	1319.616211	6.099267
344.150269	1034.070923	5870.955078	1328.606934	6.089375
344.516998	1036.299927	5871.921387	1336.408691	6.206209
344.883728	1032.436157	5791.525391	1338.712158	6.435601
345.250427	1040.163696	5676.431152	1333.436646	6.325626
345.617065	1037.340210	5548.332520	1315.381104	6.163630
345.983704	1034.516724	5445.200684	1309.734131	6.239789
346.350281	1026.343628	5330.774414	1307.059204	6.521550
346.716827	1027.978149	5216.497070	1315.827026	6.872331
347.083405	1032.361938	5098.949707	1314.489380	6.937695
347.449860	1037.711792	5033.786621	1315.083862	6.941113
347.816376	1040.163696	5014.021484	1319.096191	7.019186
348.182770	1041.724121	5046.046387	1319.170532	6.928673
348.549194	1040.238159	5086.764160	1313.226440	6.746238
348.915558	1028.943970	5149.996094	1308.693726	6.788309
349.281921	1028.646851	5210.032715	1305.201538	6.613948
349.648193	1029.464233	5262.712891	1317.535889	6.804978
350.014526	1042.838745	5294.588867	1322.885620	6.586626
350.380737	1044.101929	5319.777832	1338.712036	6.890375
350.746948	1041.278320	5361.238770	1341.089722	6.940142
351.113159	1035.408325	5432.940918	1341.684204	6.964721
351.479309	1036.151367	5490.599609	1344.507690	6.922436
351.845428	1037.860352	5589.421875	1357.213379	7.016340
352.211517	1043.284546	5660.678223	1373.931641	7.160903
352.577576	1037.563110	5800.739746	1380.395874	7.197566
352.943604	1042.318481	5911.673340	1391.095581	7.162696
353.309601	1036.002808	6061.393066	1400.754883	7.258184
353.675537	1043.804565	6195.212402	1421.411011	7.330160
354.041473	1034.516724	6322.715332	1429.361328	7.466524
354.407379	1031.247437	6450.292969	1442.290039	7.585148
354.773254	1027.903809	6572.520996	1444.370483	7.511189
355.139038	1029.166992	6717.857422	1472.605469	7.795089
355.504913	1039.866577	6918.400391	1485.831543	7.586330
355.870636	1038.603394	7145.470215	1510.871460	7.733394
356.236389	1042.912964	7414.519531	1524.171753	7.553178
356.602081	1035.482544	7658.604004	1553.075562	7.814940
356.967804	1035.334106	7848.744629	1573.508789	7.898756
357.333405	1035.036987	7952.025879	1589.409546	8.014651
357.699036	1041.649780	7952.917480	1593.199097	7.980436
358.064606	1038.008911	7895.035156	1592.530151	8.086905
358.430176	1028.052368	7830.837402	1580.864624	8.126264
358.795654	1025.005981	7852.683105	1591.044312	8.290350
359.161163	1035.928589	8027.294434	1600.926392	8.081366
359.526581	1043.358765	8363.291016	1641.272949	8.168303
359.892029	1044.473389	8861.342773	1676.863892	8.090075
360.257416	1042.912964	9358.724609	1732.293579	8.289998
360.622772	1039.792236	9785.296875	1766.770020	8.312588
360.988098	1038.306274	10053.455078	1799.240356	8.440617
361.353394	1031.619019	10151.311523	1811.574707	8.552434
361.718658	1038.009155	10008.576172	1807.859497	8.581958
362.083893	1035.259888	9605.038086	1770.708130	8.581882
362.449097	1036.597168	9077.266602	1735.637207	8.693804
362.814209	1037.711670	8498.225586	1687.414673	8.708556
363.179382	1034.962524	7971.121094	1644.096313	8.782004
363.544434	1029.464111	7564.610840	1608.505371	8.860417
363.909546	1026.566284	7309.232422	1593.347534	9.021349
364.274536	1033.476440	7183.066895	1599.291626	9.200860
364.639587	1039.643677	7059.501465	1591.267090	9.163396
365.004517	1039.643677	6999.093750	1589.929688	9.233839
365.369507	1034.665405	6943.886719	1585.174194	9.316097
365.734344	1038.008911	6946.561035	1585.991577	9.274398
366.099274	1039.272217	6936.158691	1586.437500	9.278884
366.464081	1038.752075	6905.248535	1581.459106	9.250957
366.828918	1035.779907	6833.546875	1584.134155	9.458025
367.193665	1034.219604	6740.817871	1583.613892	9.627352
367.558411	1037.934692	6690.291504	1588.220703	9.735515
367.923126	1031.247437	6649.721191	1587.551880	9.901344
368.287781	1030.355835	6606.552246	1582.573608	9.903127
368.652435	1029.389771	6560.187012	1583.019531	10.009945
369.017059	1036.968628	6569.549316	1580.790405	9.829442
369.381653	1041.278320	6599.122559	1589.706665	9.867645
369.746185	1038.677734	6653.140625	1591.415649	9.844893
370.110687	1038.603516	6725.361816	1597.062866	9.820346
370.475220	1042.690063	6814.303223	1604.418579	9.732609
370.839661	1047.296875	6864.531250	1618.907715	9.826161
371.204041	1044.770630	6892.246094	1636.740601	10.123513
371.568451	1038.974976	6887.192871	1646.696899	10.391575
371.932770	1036.820190	6884.740723	1650.040527	10.486127
372.297150	1036.894531	6851.899902	1641.941528	10.404926
372.661377	1037.637573	6856.580566	1640.009766	10.351918
373.025696	1042.170044	6889.274902	1637.854980	10.187690
373.389862	1045.290649	6954.512207	1647.142578	10.184961
373.754059	1041.278320	7044.864746	1660.740112	10.318195
374.118225	1035.705566	7167.910156	1674.411743	10.415605
374.482361	1038.306152	7307.300781	1689.123657	10.381529
374.846436	1034.293823	7468.389160	1700.417847	10.353033
375.210510	1029.687012	7707.792480	1741.878540	10.664575
375.574524	1021.216553	8023.430176	1777.321167	10.798079
375.938538	1025.303223	8340.554688	1813.729492	10.777843
376.302460	1029.910034	8571.709961	1826.063599	10.556546
376.666412	1042.838745	8714.891602	1845.753906	10.465454
377.030304	1042.615845	8734.730469	1850.583618	10.503844
377.394196	1047.371094	8628.105469	1840.924194	10.468024
377.757996	1034.665405	8408.244141	1818.930664	10.636155
378.121796	1043.210205	8146.550781	1790.026855	10.513597
378.485565	1039.197876	7887.679688	1769.222046	10.659650
378.849304	1045.216431	7684.238281	1751.463867	10.637823
379.212982	1034.219604	7537.862793	1746.039551	10.944942
379.576630	1039.866577	7466.383301	1734.077026	10.802282
379.940277	1038.974976	7448.402344	1733.408203	10.834559
380.303864	1037.860352	7454.271973	1736.454712	10.887618
380.667450	1029.984253	7478.123535	1750.497925	11.173978
381.030945	1034.442383	7480.054688	1751.463867	11.124180
381.394501	1042.764526	7527.236816	1758.745483	11.041469
381.757935	1051.160645	7580.289063	1761.940430	10.886289
382.121399	1046.033691	7652.957520	1774.646118	11.028013
382.484741	1048.114136	7784.250000	1794.782227	11.084517
382.848145	1045.587891	7929.957520	1804.515747	11.023927
383.211487	1046.405273	8068.681152	1821.085327	11.031752
383.574768	1039.569336	8134.364746	1829.927368	11.139969
383.938019	1043.061646	8164.605469	1838.695190	11.172206
384.301270	1051.680664	8175.082520	1849.989258	11.206845
384.664459	1058.070679	8204.060547	1856.527710	11.173498
385.027649	1049.823120	8215.354492	1869.084961	11.433372
385.390778	1037.340210	8317.891602	1874.286133	11.495640
385.753876	1031.544800	8376.740234	1883.796875	11.602851
386.116943	1035.928467	8468.726563	1906.459106	11.712018
386.479980	1040.015137	8503.500977	1910.099976	11.657888
386.842987	1040.683960	8549.866211	1912.180542	11.605745
387.205994	1038.900757	8574.534180	1897.394165	11.392452
387.568909	1037.563354	8558.261719	1910.174316	11.602792
387.931793	1039.346558	8501.494141	1909.282715	11.657987
388.294678	1040.832520	8450.225586	1922.359985	11.897431
388.657471	1046.033569	8456.763672	1923.548828	11.841145
389.020294	1050.788940	8512.788086	1933.133789	11.824511
389.383057	1048.931396	8696.463867	1949.851929	11.780540
389.745819	1044.399048	8866.766602	1972.217163	11.861091
390.108521	1045.067749	9122.219727	1997.331421	11.789598
390.471191	1045.439331	9359.690430	2027.795532	11.815331
390.833801	1043.953247	9584.159180	2045.702637	11.729803
391.196442	1043.061646	9737.519531	2060.265869	11.699455
391.558960	1046.405273	9751.786133	2055.362061	11.590036
391.921509	1052.200806	9703.711914	2052.018311	11.556565
392.284027	1042.615845	9644.270508	2053.504150	11.752254
392.646484	1039.346436	9623.317383	2060.117188	11.891592
393.008911	1034.219482	9638.623047	2067.324463	12.006701
393.371307	1033.476440	9630.375000	2064.947021	11.998171
393.733673	1032.584839	9590.772461	2061.751953	12.025527
394.096008	1034.293823	9503.467773	2051.423828	12.009790
394.458344	1037.563110	9393.796875	2042.804688	12.029840
394.820587	1036.671631	9189.612305	2021.331421	12.077358
395.182831	1032.659302	8961.131836	1998.074585	12.176560
395.545013	1033.922363	8728.265625	1982.322388	12.325938
395.907196	1034.293945	8580.625977	1964.043945	12.320555
396.269287	1038.900635	8509.444336	1957.431030	12.295362
396.631409	1039.717896	8461.000000	1944.799438	12.195757
396.993469	1039.792236	8423.921875	1943.982056	12.245042
397.355530	1034.739624	8430.386719	1955.276001	12.447002
397.717499	1037.711792	8494.287109	1977.195313	12.599397
398.079468	1036.077148	8550.682617	1980.018921	12.561428
398.441376	1034.739746	8550.163086	1971.548462	12.465149
398.803284	1035.408325	8493.246094	1948.663208	12.245572
399.165131	1036.671509	8471.030273	1951.858032	12.310228
399.526978	1043.804688	8443.910156	1949.926147	12.244710
399.888763	1041.872681	8431.650391	1948.291626	12.265848
400.250519	1043.878906	8426.747070	1942.644653	12.173667
400.612244	1044.176147	8482.770508	1940.861450	12.054500
400.973938	1047.148315	8580.106445	1948.440308	11.964649
401.335602	1046.553833	8665.555664	1949.554688	11.851957
401.697205	1048.485718	8786.222656	1964.935547	11.843901
402.058807	1042.392944	8935.422852	1991.089966	12.019428
402.420349	1037.191772	9167.395508	2024.006226	12.137635
402.781860	1031.841919	9383.320313	2053.132813	12.228864
403.143341	1040.015259	9583.788086	2065.021240	11.997112
403.504822	1049.525879	9764.864258	2072.525635	11.737925
403.866241	1048.188354	9900.541016	2085.751709	11.720764
404.227631	1040.981079	9987.251953	2099.423340	11.831100
404.588959	1034.665405	10003.523438	2114.655518	12.041556
404.950287	1036.522949	9973.952148	2114.581299	12.062286
405.311554	1034.516724	9879.586914	2102.692627	12.076511
405.672821	1040.089478	9780.616211	2091.398682	12.027985
406.034027	1032.361938	9621.310547	2065.244141	12.025712
406.395203	1033.996704	9473.225586	2045.999634	11.991652
406.756348	1028.869751	9356.942383	2029.355957	12.013419
407.117493	1038.603394	9332.571289	2027.275513	11.920376
407.478516	1038.529175	9359.393555	2034.557129	11.970246
407.839600	1035.631226	9398.179688	2029.504517	11.884813
408.200592	1036.894409	9518.252930	2031.659180	11.728838
408.561554	1039.866455	9651.328125	2044.067871	11.661219
408.922485	1047.593872	9789.753906	2064.500977	11.632217
409.283417	1042.838623	9857.444336	2076.166748	11.722908
409.644257	1046.033813	9963.920898	2078.841553	11.581306
410.005096	1047.445435	10029.159180	2090.209961	11.609861
410.365906	1062.083130	10023.065430	2096.005371	11.538046
410.726715	1057.996460	9961.320313	2083.671143	11.520132
411.087433	1056.287476	9863.983398	2065.169922	11.454556
411.448120	1050.937622	9818.361328	2055.510498	11.458016
411.808807	1053.463989	9780.987305	2054.395752	11.468680
412.169434	1048.559937	9788.492188	2058.111084	11.551018
412.530029	1038.900757	9847.710938	2055.213379	11.537456
412.890564	1037.340332	9958.050781	2065.541260	11.525997
413.251099	1036.745972	10108.290039	2067.696045	11.364659
413.611572	1037.786133	10253.999023	2086.271729	11.376534
413.972076	1043.953369	10367.310547	2096.748535	11.292018
414.332489	1048.337158	10471.631836	2122.457275	11.398562
414.692871	1045.587891	10665.338867	2130.110596	11.273916
415.053223	1033.922363	10846.117188	2148.166016	11.355702
415.413574	1032.139160	11113.754883	2156.339111	11.150990
415.773834	1036.522949	11340.156250	2178.630127	11.084510
416.134094	1036.225708	11598.133789	2196.462646	10.985107
416.494263	1035.036987	11843.184570	2228.784424	11.044885
416.854462	1039.494995	12150.797852	2259.768799	10.982275
417.214630	1045.736450	12566.225586	2301.675293	10.901784
417.574738	1044.473267	12969.243164	2339.644287	10.861183
417.934784	1035.705688	13400.125000	2387.197754	10.930494
418.294861	1033.922485	13876.627930	2442.701904	10.969491
418.654846	1035.111206	14445.860352	2501.401123	10.933691
419.014832	1039.940918	15045.409180	2552.447021	10.799397
419.374756	1042.170044	15692.065430	2609.660156	10.699668
419.734680	1042.764404	16339.911133	2659.145752	10.566555
420.094543	1046.330933	16862.779297	2704.842041	10.485990
420.454376	1047.371094	17171.435547	2718.290771	10.362894
420.814148	1048.337036	17331.630859	2742.513672	10.404386
421.173920	1045.810913	17449.029297	2763.541016	10.471909
421.533691	1043.804688	17542.203125	2778.104492	10.511929
421.893341	1039.197876	17542.500000	2763.318359	10.447124
422.253021	1036.151489	17495.912109	2754.327393	10.438645
422.612640	1027.606567	17437.361328	2737.014893	10.417026
422.972260	1034.442505	17490.638672	2735.083252	10.334350
423.331757	1043.210327	17601.423828	2738.055420	10.235677
423.691315	1050.269043	17741.632813	2761.237549	10.250622
424.050781	1051.977905	17733.830078	2763.466797	10.259586
424.410248	1044.027466	17560.705078	2731.293701	10.215530
424.769653	1041.575562	17247.593750	2690.278564	10.173400
425.128998	1042.912964	16888.117188	2637.820557	10.065554
425.488373	1038.380493	16481.978516	2599.257568	10.106953
425.847656	1036.597290	16090.996094	2549.177734	10.047432
426.206940	1027.829590	15691.842773	2510.911865	10.113754
426.566193	1028.349609	15322.632813	2469.153564	10.079581
426.925385	1033.179321	14944.284180	2423.977539	9.997755
427.284576	1039.420776	14571.506836	2395.445313	10.020809
427.643677	1041.352661	14274.295898	2357.625244	9.946938
428.002777	1040.163940	14065.950195	2339.049561	9.971648
428.361847	1043.804565	13909.989258	2315.718506	9.885712
428.720856	1044.399048	13727.426758	2297.663086	9.881427
429.079865	1040.312378	13582.239258	2275.743896	9.850412
429.438812	1033.105103	13515.144531	2252.338623	9.767903
429.797760	1033.476563	13506.674805	2249.440674	9.748615
430.156616	1033.922363	13421.968750	2236.809326	9.710061
430.515503	1032.882080	13336.520508	2223.583252	9.677634
430.874268	1030.058594	13318.762695	2213.180908	9.627723
431.233093	1028.423950	13426.577148	2220.685303	9.616443
431.591827	1029.612915	13595.614258	2238.963867	9.623992
431.950562	1037.563110	13743.921875	2250.629395	9.546924
432.309204	1042.764404	13872.614258	2246.468506	9.382059
432.667877	1043.061646	14041.801758	2253.155762	9.309319
433.026459	1038.380493	14130.742188	2259.099854	9.323905
433.385010	1043.210083	14191.225586	2273.143311	9.354516
433.743561	1045.067871	14165.963867	2275.669678	9.378946
434.102051	1051.680786	14172.500977	2270.617188	9.290092
434.460510	1045.067871	14220.278320	2267.644775	9.279372
434.818939	1051.383545	14207.348633	2261.997803	9.202018
435.177338	1040.758301	14189.813477	2257.762451	9.255449
435.535675	1043.507446	14132.750000	2256.796631	9.269361
435.894012	1039.792236	14139.808594	2249.960693	9.237915
436.252289	1043.878906	14298.148438	2260.511963	9.179178
436.610535	1044.399048	14387.161133	2260.140381	9.111617
436.968719	1043.433105	14664.905273	2273.514893	9.030461
437.326935	1043.730347	14928.605469	2280.499268	8.907310
437.685028	1049.228760	15248.329102	2307.396729	8.860899
438.043152	1044.176147	15443.820313	2323.891846	8.887134
438.401215	1041.575562	15696.301758	2349.971924	8.928153
438.759277	1036.671509	16031.257813	2364.609619	8.856117
439.117249	1039.866577	16562.671875	2404.584717	8.791698
439.475250	1048.782959	16915.980469	2420.262451	8.643489
439.833130	1040.981201	17284.966797	2446.342773	8.651581
440.191071	1042.764282	17360.310547	2454.367432	8.650830
440.548889	1039.866577	17477.115234	2463.358154	8.660157
440.906708	1046.925415	17437.064453	2448.794678	8.553126
441.264496	1038.752075	17308.298828	2435.271484	8.583640
441.622223	1034.368164	17058.271484	2407.185303	8.567307
441.979950	1038.306152	16753.705078	2384.300049	8.564809
442.337616	1041.352661	16506.720703	2352.424072	8.477467
442.695251	1042.987305	16287.528320	2340.089844	8.508636
443.052887	1039.123535	16227.863281	2335.408691	8.534514
443.410461	1039.643677	16313.682617	2330.504639	8.451340
443.768005	1040.163818	16520.912109	2340.684326	8.400889
444.125458	1038.157715	16745.232422	2362.529297	8.431688
444.482941	1037.265991	17081.750000	2385.265869	8.401640
444.840393	1035.111206	17566.947266	2410.751709	8.321160
445.197754	1038.157593	18046.421875	2434.677490	8.210832
445.555084	1046.330933	18420.314453	2473.612061	8.215048
445.912415	1042.244263	18651.990234	2503.927490	8.300422
446.269714	1042.912964	18753.857422	2518.564941	8.331864
446.626953	1038.974976	18763.591797	2520.942627	8.361070
446.984161	1048.708618	18590.912109	2493.822266	8.237926
447.341309	1038.974976	18385.466797	2465.810303	8.225498
447.698456	1043.135986	18100.662109	2420.485596	8.074733
448.055542	1038.677734	17912.974609	2399.309326	8.063338
448.412598	1043.730347	17577.720703	2361.414795	7.969549
448.769653	1040.461060	17199.966797	2336.374756	8.019513
449.126617	1040.015137	16741.220703	2299.297607	8.020292
449.483582	1039.718018	16456.714844	2279.830322	8.043799
449.840515	1045.736572	16219.690430	2257.390869	7.985093
450.197388	1053.166626	16081.041992	2237.106201	7.878290
450.554230	1052.572266	15944.324219	2230.493408	7.909890
450.911041	1045.216187	15918.020508	2218.456299	7.888493
451.267822	1039.940918	15943.655273	2223.360352	7.940433
451.624573	1038.232056	16013.424805	2218.902100	7.884173
451.981262	1036.820313	15955.395508	2220.759766	7.936009
452.337921	1035.408447	15804.485352	2204.190186	7.913709
452.694580	1042.615845	15497.541992	2175.137939	7.834852
453.051147	1044.473389	15309.778320	2148.240234	7.737422
453.407715	1046.033691	14998.078125	2116.810303	7.674693
453.764221	1044.919067	14879.863281	2100.240967	7.627944
454.120728	1044.993408	14568.608398	2078.841553	7.644762
454.477142	1039.792114	14513.476563	2069.182129	7.640004
454.833557	1040.906860	14430.627930	2063.683594	7.638522
455.189911	1045.513550	14429.885742	2066.209961	7.626031
455.546265	1051.755127	14458.268555	2069.181885	7.589048
455.902557	1052.646729	14497.129883	2070.816650	7.573143
456.258820	1042.764404	14765.585938	2081.293213	7.567896
456.615051	1042.021362	15039.242188	2098.754395	7.549592
456.971252	1037.117432	15385.567383	2116.512939	7.522732
457.327393	1041.278442	15886.218750	2143.930664	7.427798
457.683502	1039.643677	16527.673828	2188.958252	7.420663
458.039612	1046.182251	17378.662109	2250.109375	7.371368
458.395630	1050.343262	18231.212891	2312.821045	7.348160
458.751648	1049.228638	18951.652344	2362.157959	7.333807
459.107605	1047.148315	19606.927734	2412.386475	7.355896
459.463562	1044.250488	19848.189453	2425.166260	7.343758
459.819458	1047.594116	19786.964844	2413.798096	7.290554
460.175323	1044.844849	19273.607422	2364.906982	7.241644
460.531158	1035.408325	18571.445313	2313.637939	7.289159
460.886932	1034.516724	17821.134766	2264.078125	7.324653
461.242676	1035.482666	17114.814453	2214.889893	7.334927
461.598419	1047.445435	16613.791016	2179.298828	7.271157
461.954102	1045.587891	16108.829102	2137.391846	7.248134
462.309723	1047.519775	15706.851563	2113.912354	7.274497
462.665344	1046.330933	15365.356445	2082.853760	7.238780
463.020905	1053.686890	15202.559570	2076.092529	7.226057
463.376373	1049.526001	15220.096680	2067.472900	7.183528
463.731873	1042.021362	15234.511719	2064.352539	7.203325
464.087341	1035.854248	15262.299805	2061.677490	7.210679
464.442749	1033.625122	15343.958008	2060.637451	7.176719
464.798126	1038.826416	15478.891602	2075.275146	7.177590
465.153503	1041.649902	15656.178711	2082.407959	7.121393
465.508820	1048.039917	15805.081055	2097.417236	7.111028
465.864105	1046.108032	15876.335938	2094.816650	7.071426
466.219330	1045.364868	16097.386719	2106.036377	7.046705
466.574524	1041.352661	16118.117188	2106.036377	7.061752
466.929657	1041.649902	16039.875977	2100.315186	7.058603
467.284790	1039.643677	15833.242188	2087.609375	7.083913
467.639893	1037.488892	15606.915039	2071.039795	7.093971
467.994934	1042.467041	15429.183594	2059.968506	7.072506
468.349945	1037.117310	15211.625000	2040.649902	7.079841
468.704926	1038.900513	15096.381836	2019.993774	6.979154
469.059875	1033.625122	14967.168945	2008.774048	6.998571
469.414764	1041.798462	14951.789063	2005.207520	6.926023
469.769653	1044.027466	14928.977539	2003.126953	6.907475
470.124451	1043.730347	15029.434570	2007.139526	6.888528
470.479248	1035.334106	15034.785156	2003.275513	6.914138
470.834015	1033.402222	15056.555664	2014.866821	6.998887
471.188721	1026.789185	15185.174805	2021.628296	7.026501
471.543365	1031.173096	15440.700195	2038.643555	6.991697
471.898010	1038.603394	15705.067383	2046.371216	6.871239
472.252625	1042.095581	15985.561523	2068.662109	6.869668
472.607178	1046.256592	16237.151367	2079.213135	6.799840
472.961700	1044.844849	16357.743164	2085.825928	6.798067
473.316193	1055.172852	16412.060547	2074.754883	6.639249
473.670654	1054.058350	16316.579102	2072.600098	6.673483
474.025055	1046.108032	16361.383789	2077.801025	6.736366
474.379456	1042.244141	16385.236328	2081.070557	6.770690
474.733795	1039.792358	16537.779297	2081.442139	6.721194
475.088104	1042.838745	16797.318359	2101.726807	6.721187
475.442383	1043.433105	17105.228516	2137.391846	6.810937
475.796570	1040.758179	17385.349609	2166.667236	6.888573
476.150787	1037.340332	17748.541016	2179.893311	6.837049
476.504944	1033.030884	18150.595703	2193.862061	6.781521
476.859070	1028.126831	18500.189453	2208.945557	6.758325
477.213135	1027.606567	18744.642578	2229.304443	6.782726
477.567200	1034.739624	18969.410156	2238.369385	6.711190
477.921173	1046.553833	19233.037109	2259.322754	6.668519
478.275146	1049.005737	19462.705078	2263.780762	6.597126
478.629089	1049.526001	19731.533203	2269.353516	6.529424
478.983002	1050.491821	20151.939453	2291.867432	6.498857
479.336823	1048.857178	20675.103516	2319.359619	6.473487
479.690643	1046.999634	21295.009766	2359.631592	6.482770
480.044403	1040.906860	22064.044922	2411.495117	6.519427
480.398163	1043.581665	23130.068359	2479.184570	6.499915
480.751862	1041.352661	24670.289063	2577.041260	6.499187
481.105499	1042.690063	26757.228516	2704.693359	6.463283
481.459137	1044.399048	29772.802734	2898.994873	6.455617
481.812744	1043.210083	33706.167969	3173.617920	6.522397
482.166290	1041.055542	38574.925781	3479.373291	6.496313
482.519806	1039.866577	43548.972656	3829.488037	6.562409
482.873291	1036.225708	47876.363281	4117.411133	6.578088
483.226715	1035.408447	50716.511719	4339.353516	6.650306
483.580139	1033.625122	51804.078125	4415.365234	6.660843
483.933502	1037.043091	51193.234375	4359.192383	6.623608
484.286804	1032.807739	49064.167969	4196.097656	6.585885
484.640106	1038.752075	45994.277344	3962.490234	6.503624
484.993347	1034.739624	42920.519531	3753.253662	6.490303
485.346558	1036.300171	40714.996094	3609.329102	6.484661
485.699738	1029.538452	39857.316406	3550.035400	6.491479
486.052887	1033.402222	40126.957031	3564.747314	6.475096
486.405975	1035.036743	41175.667969	3618.245361	6.435396
486.759064	1036.077026	42253.730469	3691.061768	6.441378
487.112061	1041.129517	42804.312500	3731.408203	6.441748
487.464996	1044.176147	42516.312500	3708.597656	6.424606
487.817963	1042.021362	41406.082031	3627.012939	6.404191
488.170868	1037.265991	39661.300781	3501.812744	6.380863
488.523743	1040.758179	37625.261719	3377.950439	6.388476
488.876587	1041.426880	35739.535156	3261.518311	6.398306
489.229401	1044.993530	34548.761719	3192.788086	6.410605
489.582153	1041.872681	34256.750000	3165.444580	6.393435
489.934845	1045.587891	34858.601563	3206.756836	6.391530
490.287537	1040.981201	35990.828125	3272.291748	6.384321
490.640198	1041.798584	37249.886719	3358.631592	6.398661
490.992798	1038.380615	37949.003906	3405.293701	6.412552
491.345337	1037.488892	37822.683594	3405.665283	6.437851
491.697876	1033.996704	36619.054688	3325.418213	6.439280
492.050354	1039.866577	34732.433594	3198.657959	6.407323
492.402832	1044.547607	32272.570313	3026.126953	6.345516
492.755219	1048.485718	29708.755859	2861.174805	6.324746
493.107605	1041.501343	27349.494141	2724.235107	6.396284
493.459930	1037.043091	25530.562500	2621.325928	6.468172
493.812225	1035.779907	24250.994141	2545.239746	6.502028
494.164490	1041.129639	23516.587891	2495.605469	6.471395
494.516724	1039.940796	23226.289063	2472.645752	6.457597
494.868896	1043.135864	23259.427734	2464.026855	6.395717
495.221039	1045.513672	23466.580078	2466.478760	6.337634
495.573120	1048.039917	23635.025391	2478.664307	6.333844
495.925201	1048.411499	23849.835938	2498.057373	6.357699
496.277222	1050.640625	24016.125000	2508.757080	6.349165
496.629211	1053.984253	24120.000000	2515.964355	6.338243
496.981140	1048.634277	24036.187500	2506.824951	6.343392
497.333069	1043.581665	23821.750000	2497.834473	6.384415
497.684967	1040.683960	23430.990234	2475.395020	6.407733
498.036804	1042.541382	22989.335938	2451.618164	6.420422
498.388580	1042.764404	22525.759766	2421.600098	6.418265
498.740326	1040.238159	22115.164063	2398.343506	6.444176
499.092072	1033.699585	21631.380859	2375.458008	6.514123
499.443756	1036.894531	21190.466797	2346.034180	6.495820
499.795410	1041.575562	20804.242188	2319.656738	6.467150
500.147003	1047.891235	20545.964844	2307.694092	6.461165
500.498566	1037.563110	20280.630859	2292.387695	6.520917
500.850098	1034.516724	20113.226563	2281.688232	6.536981
501.201599	1033.104980	20005.708984	2272.325928	6.531633
501.553009	1043.284546	19971.900391	2269.799561	6.479687
501.904449	1038.677734	19961.724609	2267.347412	6.492980
502.255859	1041.129761	20024.285156	2267.941895	6.462635
502.607178	1036.745972	20122.216797	2273.663086	6.480936
502.958405	1039.420776	20182.847656	2285.848877	6.510997
503.309692	1038.083374	20192.656250	2292.016113	6.546389
503.660919	1040.832520	20205.361328	2303.384277	6.587961
504.012115	1045.885132	20202.611328	2298.554688	6.539059
504.363251	1048.560059	20192.208984	2292.090332	6.495785
504.714294	1046.033813	20140.867188	2282.951172	6.477759
505.065369	1041.204102	20110.033203	2278.641602	6.489321
505.416443	1041.426880	20015.519531	2275.149414	6.502143
505.767395	1042.095703	19976.287109	2264.969971	6.458550
506.118317	1038.529175	19904.361328	2251.818115	6.431145
506.469238	1031.470337	20017.152344	2260.883057	6.475473
506.820160	1035.482788	20142.798828	2281.985107	6.523691
507.170929	1039.123657	20416.234375	2298.183105	6.497663
507.521729	1040.461060	20603.773438	2300.114990	6.438858
507.872498	1034.516724	20871.412109	2305.167480	6.405492
508.223236	1033.625122	21098.853516	2319.879639	6.410366
508.573883	1036.225708	21327.779297	2338.306641	6.416862
508.924500	1034.591187	21498.228516	2350.938232	6.432615
509.275116	1035.185669	21651.515625	2378.430176	6.515440
509.625702	1030.950317	21831.849609	2390.169922	6.534427
509.976196	1031.619019	22013.962891	2396.857178	6.506605
510.326660	1035.705688	22231.820313	2409.711670	6.482348
510.677124	1040.683960	22425.453125	2418.776367	6.444271
511.027557	1041.798462	22580.150391	2430.887695	6.449376
511.377869	1042.615845	22685.734375	2432.596680	6.422276
511.728180	1044.324707	22677.859375	2431.705078	6.413101
512.078430	1045.959473	22638.107422	2425.240723	6.387883
512.428650	1036.671509	22535.943359	2411.569092	6.395089
512.778931	1035.259888	22452.720703	2412.906494	6.432353
513.129028	1037.488892	22303.744141	2420.708496	6.504293
513.479126	1040.163818	22130.841797	2414.987061	6.518630
513.829285	1043.507446	22008.166016	2406.962402	6.503588
514.179382	1040.461060	21940.849609	2391.061768	6.462084
514.529297	1044.176147	21919.896484	2388.535400	6.439822
514.879272	1045.067871	21994.197266	2392.101807	6.430024
515.229187	1048.931519	22089.974609	2410.454346	6.470795
515.579163	1045.439331	22454.357422	2439.209717	6.510233
515.928955	1042.392944	22938.289063	2468.633545	6.513735
516.278748	1040.683960	23720.994141	2510.837646	6.482070
516.628540	1043.953247	24509.494141	2558.688721	6.455148
516.978333	1042.392944	25374.677734	2616.495850	6.469195
517.327942	1039.494995	26187.546875	2659.591553	6.442235
517.677612	1038.752075	26846.539063	2693.547607	6.412001
518.027222	1037.191772	27290.125000	2715.764404	6.393848
518.376831	1035.928589	27356.703125	2724.903809	6.416890
518.726379	1031.916138	27185.507813	2708.631592	6.411033
519.075867	1029.241333	26637.822266	2669.919678	6.406753
519.425293	1029.464233	26017.693359	2626.972900	6.393045
519.774658	1035.408447	25323.630859	2591.976074	6.408734
520.124084	1038.974976	24772.525391	2571.097168	6.455512
520.473389	1037.191650	24276.482422	2552.372803	6.519911
520.822693	1035.259766	23965.896484	2527.333008	6.506898
521.171997	1035.854126	23787.197266	2512.100586	6.488612
521.521240	1044.176147	23740.982422	2514.626953	6.478668
521.870361	1044.547729	23769.068359	2526.218262	6.520140
522.219482	1044.101929	23957.875000	2532.831055	6.497093
522.568604	1040.683960	24341.275391	2537.215088	6.422717
522.917664	1038.826294	24831.226563	2564.335693	6.411751
523.266724	1043.358765	25444.669922	2607.876953	6.411615
523.615662	1036.002808	26258.656250	2657.808350	6.429956
523.964600	1040.089478	27349.271484	2736.940674	6.449654
524.313538	1030.727417	28557.208984	2806.488281	6.451100
524.662354	1036.225708	29827.490234	2893.496338	6.450813
525.011169	1034.739746	31003.037109	2962.152100	6.431504
525.359985	1045.142090	32208.224609	3044.851318	6.416917
525.708740	1041.798462	33392.160156	3128.961914	6.451747
526.057434	1042.690063	34896.941406	3224.218018	6.443882
526.406067	1038.454834	36826.062500	3348.898193	6.455987
526.754700	1044.696289	39531.644531	3514.518799	6.417299
527.103333	1043.284546	42735.355469	3719.817139	6.419765
527.451782	1047.222534	46206.332031	3945.400391	6.417704
527.800293	1045.364868	48911.175781	4138.884766	6.462901
528.148743	1051.309082	50532.019531	4271.291992	6.507552
528.497131	1046.256714	50529.863281	4283.552246	6.542158
528.845642	1046.256714	49179.339844	4189.633301	6.530595
529.193909	1044.176147	46635.511719	4000.607178	6.484634
529.542175	1040.683838	43236.832031	3769.600342	6.467217
529.890503	1043.210205	39785.617188	3532.574219	6.425425
530.238770	1032.287720	36717.656250	3325.715576	6.426802
530.586914	1031.990479	34703.457031	3187.661133	6.402070
530.934998	1019.433289	33575.394531	3113.506836	6.432228
531.283142	1032.807739	33496.261719	3111.426514	6.402950
531.631226	1041.575562	34091.949219	3140.701416	6.351293
531.979248	1053.761230	35300.109375	3219.908203	6.325191
532.327148	1048.708618	36574.847656	3305.727783	6.353122
532.675110	1049.080078	37553.859375	3373.195068	6.366604
533.023071	1041.426880	37777.140625	3380.699951	6.367844
533.370850	1040.683838	37094.742188	3337.604248	6.370768
533.718689	1038.529175	35764.207031	3254.682373	6.381886
534.066467	1052.423706	34082.136719	3156.825439	6.371238
534.414246	1047.445435	32527.203125	3045.222656	6.346228
534.761963	1045.587891	31382.421875	2973.594971	6.355334
535.109619	1032.361938	30783.541016	2922.994873	6.354817
535.457153	1035.779907	30620.892578	2915.341553	6.353065
535.804749	1035.482788	30570.888672	2915.638672	6.365769
536.152344	1036.374268	30472.882813	2913.707031	6.377566
536.499817	1037.117310	30126.484375	2888.295654	6.363763
536.847229	1034.516724	29634.080078	2856.568115	6.370906
537.194641	1036.077026	28914.013672	2814.512695	6.379366
537.542114	1035.928467	28186.812500	2771.639893	6.392836
537.889404	1039.569336	27550.484375	2729.510498	6.374511
538.236694	1039.049316	27120.123047	2700.606689	6.370740
538.583984	1039.049194	27230.388672	2704.842041	6.360090
538.931213	1038.306152	27969.773438	2746.599854	6.343114
539.278381	1041.575562	29426.330078	2835.763672	6.320957
539.625488	1038.603394	31258.783203	2955.390869	6.342740
539.972595	1039.420776	33566.921875	3099.018311	6.331865
540.319641	1038.157593	35846.082031	3246.731689	6.345033
540.666687	1040.386719	37726.238281	3363.461182	6.332345
541.013611	1035.557007	38787.207031	3430.408203	6.343699
541.360596	1034.219604	38926.304688	3432.785889	6.329993
541.707458	1037.934692	38242.871094	3381.442383	6.298916
542.054260	1038.900757	36782.667969	3294.062500	6.309245
542.401062	1040.312378	35048.515625	3191.227295	6.324695
542.747864	1038.454834	33161.898438	3074.052002	6.336796
543.094666	1039.272217	31410.583984	2961.335205	6.328547
543.441284	1042.541504	29675.615234	2848.171875	6.306100
543.787903	1037.191772	28313.794922	2782.636719	6.399055
544.134460	1040.832520	27131.564453	2708.408447	6.391449
544.481079	1034.516724	26410.677734	2668.433350	6.438786
544.827637	1040.535278	25851.552734	2607.876709	6.317119
545.174072	1038.529175	25592.751953	2599.109131	6.355648
545.520508	1046.108032	25506.562500	2583.282959	6.284327
545.866943	1044.250488	25454.552734	2584.397217	6.309412
546.213318	1040.461060	25386.343750	2566.936035	6.269951
546.559631	1036.077271	25102.654297	2553.190186	6.303817
546.905823	1042.318604	24590.556641	2533.945801	6.334347
547.252136	1046.405273	23819.521484	2485.872070	6.320904
547.598389	1047.742676	22931.750000	2431.779541	6.324421
547.944458	1043.730347	22069.244141	2378.207275	6.346941
548.290588	1041.798462	21199.162109	2331.768066	6.399496
548.636658	1035.854248	20333.460938	2275.966553	6.426249
548.982727	1030.281616	19597.492188	2228.784424	6.454943
549.328735	1034.516846	19080.642578	2195.942627	6.435874
549.674622	1041.798462	18697.314453	2179.298828	6.442748
550.020569	1049.674561	18492.310547	2158.791260	6.358653
550.366455	1043.581665	18342.962891	2143.485107	6.358051
550.712280	1041.501221	18351.433594	2129.813232	6.287211
551.058044	1034.293823	18417.861328	2130.333252	6.305031
551.403748	1039.123535	18592.623047	2138.803711	6.264735
551.749512	1034.739624	18766.638672	2160.426025	6.348369
552.095154	1039.494995	18908.705078	2161.466064	6.278795
552.440735	1026.863525	18950.166016	2168.970703	6.372191
552.786316	1028.423950	18902.462891	2153.738525	6.295805
553.131897	1024.783081	18732.087891	2147.199951	6.338722
553.477417	1028.275269	18475.222656	2119.410889	6.254020
553.822815	1033.625122	18115.523438	2098.606201	6.234559
554.168213	1036.968750	17732.267578	2071.039795	6.193786
554.513672	1043.804688	17361.052734	2051.275391	6.174268
554.859009	1048.039917	17054.851563	2040.278687	6.198853
555.204285	1052.423828	16883.955078	2024.080444	6.137477
555.549500	1049.674561	16781.935547	2021.776978	6.179039
555.894714	1040.683960	16719.226563	2007.065063	6.163718
556.239990	1029.166992	16586.818359	1998.148804	6.228330
556.585022	1037.860474	16474.919922	1987.003296	6.148469
556.930115	1044.621948	16396.158203	1984.179810	6.120286
557.275146	1047.891235	16301.941406	1991.535767	6.186190
557.620178	1039.346313	16190.933594	1986.037476	6.248132
557.965149	1038.454712	16067.666992	1979.498901	6.261434
558.310059	1048.039917	16014.614258	1971.028320	6.166998
558.654968	1053.984131	15952.497070	1959.288452	6.076475
558.999756	1044.993530	15981.252930	1954.235840	6.087483
559.344604	1037.786133	16034.675781	1955.722046	6.120842
559.689331	1037.711914	16106.450195	1962.037598	6.134061
560.033997	1050.194702	16150.734375	1971.696899	6.102445
560.378723	1050.120361	16198.437500	1968.278931	6.061126
560.723389	1047.371094	16243.317383	1965.381226	6.041152
561.067932	1042.095581	16297.708008	1958.173828	6.004860
561.412476	1041.798462	16295.627930	1960.774414	6.024559
561.757019	1047.371216	16254.612305	1955.350586	5.970704
562.101501	1042.318481	16194.574219	1943.239136	5.945786
562.445862	1045.290649	16106.229492	1935.437134	5.910299
562.790222	1036.300171	16049.015625	1926.892456	5.932253
563.134644	1042.021362	16032.000000	1934.917114	5.956618
563.478943	1041.055420	16102.069336	1935.957397	5.941844
563.823181	1047.371094	16263.156250	1948.588867	5.922914
564.167358	1045.290649	16446.240234	1965.083984	5.972316
564.511536	1044.770508	16708.750000	1971.548462	5.916619
564.855774	1037.488770	17031.818359	1991.164429	5.962586
565.199768	1035.779907	17398.279297	2005.950562	5.929233
565.543823	1038.603394	17721.572266	2022.222778	5.895949
565.887817	1041.352661	17959.191406	2039.312500	5.898861
566.231812	1033.253662	17992.107422	2037.900757	5.924027
566.575745	1032.956421	17879.611328	2037.083374	5.960394
566.919617	1035.334106	17639.837891	2015.758423	5.904569
567.263428	1039.420776	17328.359375	1998.445923	5.887585
567.607239	1035.036987	17089.998047	1983.362671	5.906745
567.950989	1036.671509	16870.580078	1963.003540	5.850306
568.294678	1042.467163	16769.976563	1932.688110	5.660279
568.638367	1040.683960	16645.220703	1923.103149	5.654889
568.981995	1036.002808	16579.166016	1927.189819	5.733627
569.325623	1033.253540	16629.023438	1948.811890	5.870556
569.669128	1035.334106	16756.080078	1956.984985	5.862641
570.012573	1041.649780	17006.851563	1960.774536	5.757051
570.356140	1038.083374	17264.533203	1962.557983	5.697331
570.699524	1038.083374	17529.052734	1978.161499	5.700563
571.042908	1035.482666	17823.291016	2000.229370	5.746710
571.386230	1048.114136	18026.953125	2017.393188	5.708747
571.729492	1052.275024	18180.761719	2014.941040	5.620263
572.072815	1056.064575	18149.406250	2011.820435	5.591393
572.416016	1043.804565	18069.976563	2006.247925	5.652729
572.759094	1041.872681	17881.765625	2008.328491	5.739085
573.102234	1037.265991	17669.261719	1997.108765	5.771062
573.445374	1044.250488	17487.591797	1981.579468	5.700356
573.788391	1046.182373	17375.468750	1963.077759	5.615036
574.131409	1047.073975	17301.611328	1958.173950	5.605204
574.474365	1035.854248	17220.322266	1960.105835	5.710732
574.817261	1034.368164	17131.382813	1958.619751	5.741758
575.160156	1036.225708	16973.416016	1948.365845	5.723343
575.502930	1039.123657	16752.291016	1925.183472	5.638964
575.845703	1039.940918	16483.835938	1905.121704	5.602089
576.188477	1037.711792	16213.226563	1879.413086	5.546443
576.531250	1042.987305	15918.690430	1859.871216	5.491397
576.873901	1041.427002	15561.664063	1843.301880	5.522464
577.216431	1039.123657	15240.304688	1820.268066	5.500560
577.559082	1040.758179	14915.973633	1799.611938	5.469131
577.901611	1038.157593	14655.468750	1779.921509	5.447213
578.244080	1037.340332	14346.518555	1765.061035	5.467811
578.586487	1042.838745	14123.536133	1758.299438	5.469592
578.928955	1061.785767	13929.234375	1767.290405	5.482863
579.271301	1069.884888	13784.641602	1759.934448	5.427155
579.613647	1059.482544	13579.120117	1752.652710	5.536663
579.955872	1040.386719	13441.362305	1718.993530	5.472205
580.298157	1035.259888	13337.487305	1705.767578	5.450295
580.640320	1038.529175	13304.942383	1694.250610	5.345665
580.982483	1040.015137	13219.567383	1691.798462	5.351455
581.324524	1042.689941	13137.092773	1698.708618	5.424151
581.666626	1039.940796	13034.778320	1692.913086	5.443778
582.008728	1038.603394	12960.921875	1683.402344	5.408335
582.350647	1030.207397	12930.160156	1666.981445	5.351064
582.692566	1032.956421	12874.656250	1670.027954	5.379899
583.034424	1035.111206	12803.993164	1670.102173	5.395508
583.376343	1039.420776	12700.340820	1669.953735	5.407232
583.718201	1042.021362	12680.874023	1666.238647	5.363220
584.059937	1041.947144	12673.518555	1655.687500	5.276504
584.401611	1036.745850	12627.598633	1643.947754	5.238630
584.743347	1038.974976	12580.043945	1632.282227	5.140834
585.085022	1042.690063	12495.786133	1631.316406	5.139452
585.426514	1046.628052	12467.773438	1642.238770	5.214983
585.768127	1042.244263	12484.195313	1647.737183	5.291868
586.109619	1041.278320	12524.987305	1653.607056	5.332151
586.451172	1039.792236	12578.039063	1648.108765	5.272174
586.792542	1038.009155	12578.411133	1645.805298	5.266681
587.133850	1029.835571	12600.627930	1636.294556	5.241292
587.475220	1031.619019	12683.176758	1636.071655	5.187741
587.816589	1029.538452	12755.547852	1636.442993	5.175713
588.157776	1037.265991	12829.554688	1646.771362	5.168677
588.498962	1042.244263	12868.637695	1657.396484	5.201520
588.840210	1039.940918	12960.475586	1659.179688	5.194723
589.181335	1037.191772	13063.458008	1674.708984	5.301040
589.522400	1033.327881	13113.910156	1661.706055	5.201555
589.863403	1041.723999	13093.328125	1653.384155	5.075342
590.204407	1038.826294	13000.375000	1629.310059	4.936516
590.545410	1035.259766	12904.450195	1636.517456	5.065701
590.886353	1032.584839	12762.086914	1639.340820	5.172905
591.227112	1034.293823	12687.635742	1628.269897	5.097045
591.567932	1036.448608	12609.915039	1620.839478	5.049402
591.908752	1033.105103	12580.268555	1606.870728	4.968888
592.249512	1033.253662	12590.967773	1618.313110	5.062069
592.590149	1033.402222	12616.230469	1612.591919	5.000417
592.930786	1038.083374	12678.793945	1619.279175	4.992786
593.271423	1038.009033	12749.159180	1618.982056	4.960854
593.612000	1040.981079	12902.519531	1619.204712	4.874778
593.952576	1044.473267	13051.421875	1633.916626	4.909185
594.292969	1044.770508	13197.054688	1645.210815	4.940967
594.633484	1044.473267	13357.846680	1648.777344	4.907705
594.973877	1042.912964	13591.528320	1648.405884	4.825177
595.314209	1038.529053	13852.850586	1657.025024	4.826600
595.654480	1037.934570	14163.362305	1674.263306	4.848061
595.994812	1038.009033	14491.928711	1683.253906	4.795962
596.335022	1040.981201	14748.792969	1690.609863	4.739113
596.675171	1033.179321	14817.894531	1692.616089	4.783826
597.015320	1026.863647	14714.242188	1688.900879	4.836844
597.355408	1034.070923	14428.846680	1664.380981	4.705641
597.695496	1045.216431	14053.393555	1647.662720	4.631289
598.035461	1054.355591	13546.872070	1625.520508	4.572056
598.375366	1045.439331	13107.742188	1609.842773	4.679069
598.715271	1042.838745	12713.864258	1586.511719	4.658314
599.055176	1038.900635	12388.343750	1573.806030	4.713054
599.395081	1046.925293	12140.172852	1561.100220	4.635026
599.734802	1040.832520	11946.464844	1562.214722	4.780852
600.074524	1035.408325	11862.950195	1553.075562	4.781023
600.414246	1025.228882	11822.454102	1548.840210	4.849499
600.753906	1030.727295	11840.137695	1542.152954	4.731300
601.093506	1033.179321	11935.617188	1542.598755	4.672528
601.433044	1043.953369	12110.674805	1541.707031	4.497752
601.772583	1046.182495	12336.554688	1554.115601	4.498816
602.112122	1049.600220	12603.301758	1567.415894	4.481816
602.451538	1044.844849	12911.879883	1585.471313	4.555699
602.790894	1042.541504	13257.536133	1603.229858	4.590165
603.130310	1045.587891	13692.952148	1614.820923	4.500803
603.469604	1040.683960	14090.395508	1634.214233	4.548225
603.808838	1038.603394	14461.984375	1640.752808	4.485825
604.148010	1035.482788	14639.046875	1654.572876	4.550940
604.487305	1041.947144	14699.901367	1655.984741	4.495824
604.826416	1042.392822	14588.670898	1646.994141	4.463228
605.165527	1043.061523	14329.206055	1631.984985	4.432614
605.504456	1040.906738	13954.570313	1617.570313	4.465530
605.843445	1043.284546	13515.664063	1595.279297	4.425737
606.182434	1044.176147	13075.049805	1571.799683	4.385580
606.521423	1041.352661	12677.010742	1546.462402	4.341050
606.860229	1038.752075	12336.778320	1529.521484	4.343851
607.199036	1042.912964	12158.823242	1519.416382	4.286679
607.537903	1047.594116	12120.854492	1512.506226	4.198511
607.876648	1054.875732	12236.023438	1518.301880	4.144710
608.215271	1046.553833	12423.340820	1522.016968	4.179239
608.553955	1051.457886	12673.221680	1537.174805	4.179374
608.892578	1053.835449	12836.686523	1551.069336	4.219979
609.231140	1056.584595	12939.819336	1565.929810	4.286251
609.569641	1051.903564	12911.657227	1558.276489	4.269675
609.908081	1042.912964	12817.961914	1550.994995	4.314904
610.246521	1043.433105	12603.895508	1536.654663	4.266452
610.584961	1035.259888	12308.914063	1531.156250	4.398719
610.923340	1033.104980	12033.622070	1507.750854	4.314759
611.261597	1035.185425	11684.252930	1493.261719	4.301562
611.599854	1042.912964	11389.121094	1478.921265	4.214185
611.938110	1047.891235	11089.979492	1476.692383	4.270040
612.276245	1039.792358	10909.050781	1462.872070	4.286844
612.614319	1041.501099	10721.288086	1453.732788	4.258686
612.952393	1040.758179	10538.726563	1437.906250	4.181400
613.290466	1047.296875	10410.331055	1426.389282	4.048820
613.628479	1049.451782	10266.926758	1417.844360	3.996676
613.966370	1045.439331	10197.676758	1418.290405	4.073879
614.304260	1040.238159	10080.650391	1425.274780	4.259060
614.642151	1044.993530	10044.018555	1427.280884	4.248097
614.979980	1047.891357	9968.527344	1422.599976	4.200470
615.317749	1055.692993	9929.444336	1413.089233	4.027567
615.655396	1047.073975	9863.686523	1406.699097	4.078949
615.993164	1047.891235	9864.354492	1400.160522	3.995585
616.330811	1041.278320	9870.669922	1406.327515	4.134477
616.668396	1040.015137	9870.819336	1405.213013	4.135499
617.005859	1040.238037	9878.545898	1413.906372	4.227827
617.343445	1039.494995	9868.664063	1413.014648	4.230519
617.680908	1036.597290	9876.020508	1409.374023	4.217206
618.018311	1033.773804	9866.732422	1402.315063	4.172342
618.355652	1036.002930	9863.166016	1391.467163	4.026936
618.692993	1047.594116	9855.067383	1387.380371	3.857931
619.030273	1051.160645	9823.414063	1384.705566	3.802272
619.367554	1051.532104	9773.111328	1388.123535	3.859295
619.704712	1043.135864	9741.680664	1380.173218	3.874641
620.041870	1041.872681	9720.801758	1382.476440	3.924491
620.379028	1038.603516	9721.321289	1380.321655	3.935613
620.716064	1041.203979	9688.406250	1388.791992	4.019659
621.053040	1038.231812	9651.403320	1384.036743	4.014838
621.389954	1041.649780	9618.041992	1381.584961	3.963615
621.726929	1038.306274	9579.850586	1382.179321	4.025888
622.063843	1045.364990	9558.227539	1381.733398	3.951296
622.400635	1047.668335	9553.695313	1378.687012	3.891578
622.737427	1052.720947	9604.518555	1378.092651	3.804717
623.074219	1053.166748	9610.090820	1375.714844	3.769440
623.410889	1056.510376	9636.691406	1375.937866	3.722853
623.747559	1056.213257	9673.249023	1366.947266	3.606043
624.084167	1051.011963	9763.229492	1368.061646	3.639139
624.420715	1044.993530	9880.924805	1375.046021	3.735345
624.757324	1042.615723	10027.671875	1381.361938	3.770107
625.093750	1044.696289	10204.067383	1388.940796	3.758386
625.430176	1042.838745	10357.501953	1397.485718	3.807405
625.766602	1041.427002	10503.729492	1404.247070	3.834374
626.102905	1037.414673	10698.774414	1404.098511	3.795365
626.439209	1034.070923	10833.188477	1402.612305	3.760965
626.775452	1032.139160	10918.635742	1414.872437	3.871273
627.111694	1032.956421	10878.735352	1418.959106	3.920489
627.447876	1035.557007	10780.582031	1415.244019	3.896214
627.783997	1035.185547	10609.387695	1402.538208	3.836901
628.120056	1037.563232	10408.028320	1397.039673	3.836271
628.456055	1041.055542	10255.039063	1392.135742	3.810298
628.792053	1043.730347	10093.875977	1391.392578	3.841510
629.128052	1042.467163	9939.624023	1382.179199	3.818209
629.463928	1039.940796	9847.191406	1372.519897	3.776196
629.799744	1035.482788	9776.752930	1370.810913	3.836149
630.135559	1036.820190	9721.619141	1368.210327	3.815749
630.471375	1037.786133	9613.880859	1363.009155	3.792204
630.807068	1044.027466	9518.921875	1358.550903	3.711237
631.142700	1040.089478	9420.248047	1359.293945	3.809051
631.478333	1040.981079	9307.902344	1362.191772	3.885494
631.813965	1036.225708	9221.859375	1358.773804	3.940417
632.149475	1033.402222	9172.670898	1353.052612	3.927262
632.484924	1036.448608	9165.388672	1354.910278	3.917629
632.820435	1033.476563	9177.054688	1352.383789	3.916058
633.155884	1044.027466	9204.174805	1356.767700	3.832532
633.491150	1050.789185	9244.967773	1360.185547	3.775807
633.826477	1052.349487	9268.818359	1357.807861	3.717636
634.161804	1049.154419	9286.874023	1356.173218	3.726988
634.497009	1040.609619	9234.490234	1346.588257	3.734233
634.832153	1043.358765	9176.756836	1342.130127	3.673389
635.167297	1048.039917	9076.968750	1330.836060	3.522215
635.502380	1039.495117	8988.176758	1329.275757	3.645644
635.837463	1038.603394	8862.754883	1325.560547	3.667582
636.172424	1039.866577	8758.507813	1328.012573	3.733118
636.507324	1045.662231	8673.875977	1318.427368	3.575741
636.842224	1044.250366	8615.177734	1312.334595	3.540970
637.177124	1032.882202	8509.295898	1308.916748	3.692072
637.511963	1034.962524	8417.235352	1306.836304	3.682792
637.846741	1035.036865	8335.799805	1309.808472	3.763601
638.181396	1035.557007	8283.043945	1308.619629	3.767687
638.516113	1035.705566	8247.602539	1302.229614	3.695616
638.850769	1035.854126	8216.469727	1295.690918	3.618587
639.185303	1035.631348	8177.906250	1301.783691	3.726437
639.519836	1035.036865	8105.312500	1311.963257	3.916770
639.854370	1037.637573	8015.554688	1311.666016	3.927081
640.188843	1042.838745	7955.963379	1303.195435	3.766122
640.523254	1043.284546	7906.403809	1295.319214	3.672305
640.857605	1043.656128	7861.896973	1292.941650	3.656156
641.191895	1044.919067	7791.457520	1291.827026	3.659772
641.526184	1046.330933	7741.972168	1291.752808	3.665398
641.860413	1045.959351	7711.730469	1290.638184	3.670676
642.194580	1044.547729	7711.433594	1280.681763	3.541894
642.528748	1034.516724	7683.570313	1287.814697	3.809534
642.862793	1040.461060	7676.065918	1298.291382	3.885559
643.196838	1044.547607	7636.313965	1305.944702	3.965509
643.530823	1051.755005	7627.396973	1291.381226	3.644149
643.864746	1043.656128	7587.422363	1281.721924	3.638055
644.198669	1037.117310	7562.457031	1281.201782	3.740563
644.532532	1037.265991	7545.218750	1287.963379	3.852170
644.866333	1041.278320	7541.875000	1290.415405	3.832526
645.200073	1043.210205	7563.125000	1296.062378	3.878151
645.533813	1040.906738	7572.338379	1295.170776	3.892930
645.867554	1048.634155	7600.573730	1293.536133	3.737855
646.201172	1050.120239	7613.428223	1283.876831	3.561567
646.534729	1053.389648	7642.926270	1291.307129	3.610534
646.868225	1042.838745	7628.511719	1285.734253	3.688241
647.201782	1036.300049	7623.384766	1284.396851	3.766413
647.535217	1034.739746	7627.471191	1279.938599	3.719230
647.868591	1037.711792	7633.639160	1283.653809	3.728695
648.201965	1032.733521	7614.097168	1288.780640	3.890487
648.535278	1026.566406	7566.766113	1290.712646	4.038810
648.868591	1025.600464	7535.039063	1291.901489	4.090999
649.201782	1032.807861	7525.007813	1286.848877	3.913019
649.534912	1035.557007	7524.041504	1288.409302	3.896939
649.868103	1034.665405	7511.931152	1283.802490	3.846331
650.201172	1036.968750	7535.410156	1283.802490	3.798353
650.534180	1039.940796	7531.992188	1281.499023	3.720830
650.867188	1045.810791	7554.506348	1291.307007	3.771819
651.200134	1047.148315	7552.128906	1296.508179	3.833368
651.533020	1043.061646	7543.732422	1291.307007	3.818765
651.865845	1038.974976	7520.029785	1288.334839	3.847520
652.198608	1036.968872	7484.290527	1288.854980	3.906833
652.531433	1041.501221	7453.974609	1291.381226	3.896780
652.864136	1039.940796	7412.885254	1284.099731	3.831179
653.196777	1098.491333	7429.900391	1335.962891	3.750690
653.529358	1101.909302	7387.845215	1339.752319	3.783733
653.861938	1096.856689	7332.563965	1345.622192	3.989371
654.194519	1034.442505	7231.066406	1290.638306	4.134441
654.526978	1037.043091	7215.388184	1293.090332	4.144269
654.859375	1039.123535	7213.233887	1282.984985	3.949742
655.191833	1044.919312	7186.931152	1287.740356	3.953445
655.524170	1034.368286	7158.918457	1275.703247	3.940452
655.856445	1036.151489	7130.089355	1278.972656	3.984635
656.188660	1038.529175	7141.978027	1275.331909	3.879818
656.520874	1042.467285	7162.336426	1283.505249	3.938613
656.853088	1049.971802	7237.902344	1289.969482	3.878480
657.185181	1042.244263	7300.910645	1291.901367	3.988982
657.517212	1044.027466	7432.203613	1296.285278	3.948824
657.849243	1038.008911	7591.731934	1307.356323	4.109838
658.181274	1040.535278	7798.516113	1318.947632	4.119756
658.513123	1040.683960	7975.431152	1323.480103	4.077959
658.844971	1038.974976	8160.890625	1324.446167	4.008348
659.176819	1043.507446	8300.208008	1329.572998	3.942088
659.508667	1039.940918	8378.894531	1336.037231	4.034585
659.840393	1048.411499	8345.756836	1337.746216	3.964931
660.172058	1042.615845	8230.140625	1337.820435	4.107180
660.503662	1044.919067	8040.148438	1335.888550	4.159542
660.835266	1044.844971	7839.829590	1332.470703	4.232913
661.166931	1044.919312	7663.062500	1323.925903	4.215784
661.498413	1043.358765	7507.695801	1319.318970	4.268964
661.829773	1032.287720	7347.053223	1309.659668	4.392435
662.161194	1035.779907	7180.688965	1303.938354	4.363912
662.492615	1033.253784	7037.062500	1294.724976	4.355089
662.823975	1037.860474	6950.201660	1288.929321	4.246521
663.155212	1034.070923	6855.020020	1287.666138	4.356596
663.486450	1037.488892	6785.695801	1285.957153	4.322535
663.817627	1040.312378	6696.384277	1283.579468	4.300990
664.148743	1045.587891	6647.715332	1271.022339	4.024086
664.479858	1048.857300	6583.740723	1267.010132	3.941417
664.810913	1046.033813	6550.156250	1267.901733	4.030941
665.141907	1045.439331	6512.039063	1277.858276	4.251618
665.472778	1041.649902	6498.292969	1282.762085	4.418691
665.803711	1041.278320	6485.066895	1286.551636	4.505563
666.134583	1040.015259	6481.648926	1279.492798	4.400839
666.465454	1039.420776	6480.162598	1277.635254	4.378345
666.796143	1039.643677	6467.457031	1280.384399	4.435317
667.126831	1039.197876	6473.253418	1289.969604	4.614817
667.457458	1040.758301	6463.742188	1298.588745	4.754402
667.788147	1038.752075	6474.218750	1300.669067	4.818666
668.118774	1039.272217	6466.416504	1295.839478	4.727482
668.449219	1041.649902	6485.958984	1286.848877	4.503767
668.779663	1051.383423	6501.414063	1286.180176	4.308173
669.110107	1048.114136	6525.191406	1300.297607	4.604344
669.440552	1047.668457	6534.998535	1304.532837	4.681045
669.770874	1029.092773	6492.571777	1304.978638	5.049637
670.101135	1031.098755	6426.962402	1294.427734	4.880201
670.431396	1027.383667	6346.343750	1290.638306	4.949363
670.761597	1036.299927	6284.672363	1284.025391	4.720044
671.091797	1036.002808	6232.957520	1278.972778	4.675238
671.421875	1039.569336	6186.221191	1282.093384	4.712268
671.751892	1045.216431	6161.850098	1292.049927	4.824139
672.081909	1041.501221	6126.333496	1289.226563	4.871849
672.411865	1036.225708	6124.178223	1286.551636	4.919974
672.741821	1028.349731	6111.027344	1277.189453	4.895839
673.071716	1030.281616	6111.473145	1290.118164	5.113693
673.401550	1028.423950	6069.046875	1289.598022	5.181385
673.731262	1034.145386	6043.709473	1296.210938	5.231305
674.060974	1036.151489	6026.395996	1289.449341	5.075861
674.390625	1045.216431	6020.229004	1293.981812	5.000297
674.720276	1040.386597	6001.133301	1293.536011	5.103051
675.049927	1036.671509	5957.220703	1293.684570	5.223259
675.379395	1022.033875	5942.657715	1290.118042	5.448174
675.708923	1020.324890	5919.028809	1290.935425	5.524125
676.038330	1023.891418	5927.202637	1300.669067	5.644709
676.367737	1037.563110	5924.230469	1302.378052	5.419132
676.697083	1037.934692	5940.725098	1307.802246	5.504366
677.026428	1040.535278	5957.740234	1295.468018	5.184505
677.355652	1038.603394	5976.167969	1294.056274	5.173662
677.684875	1042.244263	6013.616699	1292.941650	5.042820
678.013977	1042.541504	6035.089844	1301.857910	5.194069
678.343079	1043.581665	6093.863281	1308.470947	5.245040
678.672180	1048.411499	6137.999512	1308.248047	5.105257
679.001221	1038.826416	6219.212402	1316.421387	5.358577
679.330139	1036.522949	6286.901855	1325.857788	5.510742
679.659058	1035.111206	6365.291504	1327.492432	5.485391
679.987976	1041.352661	6446.281250	1331.876343	5.375162
680.316772	1039.643677	6465.005371	1330.613159	5.363135
680.645630	1032.064819	6463.890625	1333.213745	5.544157
680.974304	1029.761353	6433.798340	1330.836060	5.571292
681.302979	1031.841797	6428.299316	1340.198120	5.714051
681.631653	1040.312378	6398.652832	1342.501587	5.639605
681.960266	1039.866577	6349.019043	1344.284790	5.733839
682.288757	1037.117310	6271.149902	1336.928833	5.728117
682.617249	1035.928589	6213.416016	1340.792603	5.888262
682.945679	1034.962524	6117.416504	1334.625610	5.896031
683.274109	1038.826294	6031.597656	1331.207642	5.856093
683.602478	1042.244263	5904.540527	1327.195190	5.860419
683.930725	1051.680786	5827.265625	1319.021973	5.598083
684.259033	1054.207153	5738.177246	1313.969238	5.545767
684.587280	1051.309204	5683.044434	1306.316040	5.505643
684.915344	1051.978027	5630.363281	1306.836304	5.566554
685.243469	1048.782837	5592.171387	1302.229614	5.578364
685.571533	1045.142090	5589.942871	1298.365845	5.571724
685.899536	1041.649780	5559.849609	1299.183105	5.699910
686.227539	1045.959351	5559.923828	1303.269653	5.700317
686.555420	1050.343262	5546.400879	1312.260376	5.825484
686.883301	1044.473511	5566.462891	1317.758667	6.043472
687.211121	1040.015259	5582.810059	1322.811401	6.225158
687.538940	1039.643799	5582.958496	1332.990845	6.456675
687.866638	1045.216431	5578.053223	1335.665649	6.407670
688.194336	1051.086304	5570.400391	1332.842163	6.234483
688.521973	1051.977905	5520.915527	1323.034302	6.065343
688.849609	1048.782837	5476.854004	1320.507935	6.136421
689.177063	1046.702393	5405.002930	1328.606934	6.468221
689.504578	1046.182251	5370.823730	1323.331421	6.408604
689.832031	1049.451660	5325.424805	1322.885620	6.394660
690.159485	1045.067749	5287.084473	1311.665894	6.284703
690.486816	1043.656006	5237.599121	1308.322266	6.310678
690.814087	1042.838623	5176.373535	1305.796021	6.361562
691.141296	1047.296753	5118.343262	1306.687622	6.371602
691.468506	1043.804565	5067.445313	1311.368652	6.649801
691.795715	1033.922363	5031.705566	1304.904419	6.778308
692.122803	1024.560181	4990.245605	1304.309937	7.054260
692.449829	1030.504517	4953.613770	1304.235596	6.977401
692.776855	1037.043091	4921.886719	1310.031250	7.027005
693.103821	1038.083374	4904.351563	1310.254272	7.039628
693.430664	1031.841797	4884.141113	1300.669067	6.978359
693.757568	1031.767578	4875.298828	1303.789917	7.077407
694.084351	1033.699341	4876.338867	1298.365845	6.887622
694.411133	1034.739746	4881.911621	1310.031250	7.155685
694.737854	1040.386719	4859.398438	1307.505005	6.994435
695.064575	1042.392944	4842.977051	1310.700073	7.059629
695.391174	1049.451660	4842.977051	1305.052979	6.737831
695.717773	1048.634399	4876.116211	1304.384155	6.681932
696.044250	1048.931519	4928.201660	1306.464722	6.638703
696.370789	1045.959351	4988.535645	1323.851563	7.048493
696.697205	1039.717896	5069.376953	1337.969116	7.401401
697.023621	1041.426880	5186.775391	1356.544800	7.601723
697.349915	1041.426880	5325.572754	1358.030884	7.390131
697.676208	1046.033691	5516.753906	1371.851196	7.287808
698.002380	1046.182373	5721.384277	1380.990234	7.161356
698.328674	1042.021362	5930.620605	1401.349243	7.350324
698.654724	1042.764404	6085.541504	1413.312134	7.348088
698.980896	1043.210205	6170.543457	1419.033569	7.329802
699.306946	1041.204102	6173.441406	1415.838379	7.299629
699.632935	1034.368164	6095.498047	1403.949829	7.302355
699.958862	1036.671509	5942.806152	1404.470093	7.496708
700.284729	1038.454712	5752.516113	1391.764160	7.494799
700.610596	1045.959473	5570.771973	1391.021118	7.625988
700.936340	1040.683960	5387.615723	1377.646606	7.751736
701.262146	1042.021362	5199.779297	1365.089600	7.770251
701.587830	1041.129761	5039.582520	1351.195068	7.754632
701.913513	1048.411377	4912.747559	1337.523315	7.481542
702.239075	1045.216309	4794.977051	1327.566772	7.529826
702.564697	1038.974976	4682.631836	1317.164429	7.634897
702.890137	1040.015259	4592.577148	1310.700073	7.619425
703.215698	1046.851074	4548.812988	1318.427368	7.754976
703.541016	1050.046021	4515.005371	1323.851563	7.902128
703.866455	1039.792236	4462.398926	1328.681274	8.440615
704.191711	1032.584839	4412.467285	1328.309814	8.749564
704.517029	1033.327881	4353.173340	1322.068237	8.697404
704.842163	1041.203979	4327.167480	1315.306763	8.341626
705.167419	1043.061646	4294.028320	1316.346924	8.406277
705.492493	1041.129761	4281.471191	1313.820679	8.415500
705.817566	1032.659302	4255.539551	1316.049683	8.793077
706.142578	1028.201050	4273.149414	1317.164307	8.905019
706.467590	1033.996582	4268.765625	1330.093018	9.153557
706.792480	1030.801636	4303.910645	1331.058960	9.173460
707.117371	1040.238159	4317.879883	1326.526489	8.734583
707.442200	1030.430176	4346.114746	1324.000122	8.853977
707.766907	1036.448730	4333.558105	1329.349976	8.883576
708.091675	1033.922485	4327.613770	1334.031006	9.111616
708.416321	1035.557007	4330.214355	1332.544922	9.014228
708.741028	1037.265991	4341.730957	1328.383911	8.809835
709.065552	1033.476440	4363.501465	1330.315918	8.914032
709.390137	1038.083374	4363.872559	1332.173462	8.842716
709.714600	1031.841919	4371.006348	1339.158081	9.203384
710.039063	1030.875854	4384.083496	1340.495239	9.233529
710.363403	1028.275391	4416.553711	1342.873047	9.284883
710.687744	1030.727295	4477.110352	1347.256958	9.184402
711.012085	1031.767578	4537.666992	1352.086670	9.136574
711.336304	1028.721069	4584.997559	1359.888306	9.312191
711.660461	1031.619019	4587.227051	1359.962769	9.234532
711.984619	1038.008911	4565.902344	1364.941040	9.267063
712.308716	1045.439331	4517.531250	1354.761597	8.908816
712.632751	1050.268921	4484.392578	1350.080444	8.730365
712.956726	1044.473511	4409.198242	1349.857544	9.076048
713.280701	1046.405273	4374.870117	1354.018433	9.241893
713.604553	1040.015137	4317.434082	1355.876099	9.637491
713.928467	1044.993408	4319.737305	1347.108398	9.225607
714.252258	1036.745850	4304.653809	1349.411743	9.567769
714.575989	1037.043091	4307.849121	1352.012207	9.629709
714.899719	1039.420776	4284.145996	1357.659302	9.807874
715.223267	1045.067749	4293.210938	1361.968872	9.756378
715.546936	1051.011963	4290.610840	1366.352661	9.733943
715.870422	1049.526001	4291.576660	1369.250488	9.861797
716.193970	1045.885132	4265.199219	1367.095703	9.977610
716.517395	1038.083374	4252.790527	1362.117554	10.079742
716.840820	1037.191772	4227.527832	1362.414795	10.194006
717.164124	1039.866577	4182.797363	1352.458252	9.945866
717.487488	1042.467163	4122.463379	1350.823486	10.011581
717.810730	1033.996704	4070.971680	1341.015503	10.109362
718.133972	1035.111328	4009.820557	1344.656372	10.405892
718.457092	1038.231934	3930.762695	1344.730591	10.596210
718.780212	1047.668457	3864.930420	1341.164185	10.417765
719.103210	1045.290649	3819.903076	1328.681274	10.213702
719.426208	1044.919189	3776.584717	1323.182739	10.186589
719.749207	1034.888306	3745.674561	1325.486206	10.720060
720.072083	1034.591187	3703.916016	1327.120972	10.958943
720.394958	1029.092651	3690.764648	1320.433716	10.945792
720.717773	1032.807861	3649.155273	1311.294434	10.644097
721.040527	1038.454834	3633.105713	1307.207764	10.357961
721.363281	1040.015137	3599.743896	1304.532837	10.333817
721.685913	1040.609619	3595.360107	1313.969360	10.700056
722.008545	1038.974854	3579.013672	1323.628540	11.206667
722.331055	1039.049194	3563.558594	1322.291138	11.219684
722.653503	1038.529175	3537.775391	1311.517212	10.922815
722.976013	1031.990356	3536.140625	1305.795898	10.934070
723.298401	1037.340210	3539.558594	1311.888794	10.972208
723.620789	1042.690063	3534.803467	1318.427368	11.064397
723.943115	1047.668335	3513.107178	1318.130249	10.970132
724.265381	1044.101929	3499.361084	1309.808472	10.821934
724.587585	1039.643677	3487.769531	1301.486450	10.695642
724.909790	1036.745972	3494.679688	1308.693726	11.064080
725.231873	1036.820190	3517.416260	1316.867065	11.289498
725.553894	1041.798462	3534.580078	1319.913452	11.156813
725.875916	1067.730103	3545.948486	1348.297119	11.321320
726.197937	1062.380249	3546.766357	1354.241455	11.747819
726.519775	1054.281250	3561.775391	1351.938110	11.870690
726.841675	1023.520020	3571.286133	1318.873413	11.592642
727.163513	1025.228882	3606.282471	1322.142700	11.503590
727.485291	1033.253540	3637.861084	1342.278687	11.864557
727.806946	1039.717896	3672.337891	1346.662476	11.659281
728.128662	1037.191772	3680.882568	1344.730591	11.632934
728.450256	1028.721191	3692.399414	1332.024780	11.386645
728.771790	1029.612915	3689.055664	1340.941284	11.706526
729.093323	1032.733521	3677.835938	1340.866821	11.649200
729.414795	1039.049316	3668.176758	1346.959595	11.711501
729.736145	1033.773804	3655.842529	1348.371460	11.998070
730.057495	1035.334106	3650.715576	1358.328003	12.349782
730.378845	1031.990601	3643.210938	1364.941040	12.750761
730.700134	1037.637573	3651.607178	1361.597290	12.393400
731.021301	1036.820190	3688.238281	1360.334229	12.201548
731.342468	1040.460938	3714.764404	1364.569458	12.119362
731.663574	1039.792358	3724.423828	1371.925415	12.371645
731.984680	1043.507446	3713.501221	1375.714844	12.442254
732.305664	1044.101929	3712.535400	1376.457886	12.455095
732.626648	1045.216431	3713.204102	1380.247437	12.557442
732.947571	1045.290649	3712.684326	1378.241211	12.482244
733.268433	1039.569458	3700.275635	1374.005859	12.569461
733.589233	1037.934692	3691.582031	1370.959473	12.549700
733.909973	1033.699341	3663.050049	1371.479614	12.846529
734.230713	1040.906860	3626.492920	1373.857422	12.877180
734.551331	1045.662231	3580.499756	1369.547852	12.777372
734.871948	1046.479492	3526.852783	1362.637573	12.746391
735.192505	1044.993408	3480.042236	1353.646973	12.675457
735.513062	1036.894409	3439.101563	1346.439575	12.885865
735.833435	1041.501343	3413.541260	1336.557251	12.438910
736.153931	1037.563354	3376.538330	1334.179565	12.681460
736.474304	1046.999634	3361.752197	1327.640869	12.124028
736.794617	1046.851074	3355.288086	1325.114624	12.054197
737.114807	1049.897461	3361.009521	1321.994019	11.773404
737.434998	1043.953247	3351.201172	1328.309692	12.324485
737.755188	1043.061523	3344.885498	1337.300415	12.782858
738.075256	1041.724121	3351.126953	1341.832886	12.995081
738.395325	1041.352661	3370.000000	1335.368530	12.626036
738.715271	1041.426880	3396.154541	1336.928833	12.549306
739.035278	1046.330933	3416.587891	1344.136230	12.564262
739.355164	1049.080078	3430.184814	1353.275391	12.775386
739.675049	1040.089478	3409.529053	1359.739746	13.490544
739.994873	1039.643677	3384.191650	1353.052490	13.367558
740.314636	1040.535278	3347.114502	1349.634644	13.400770
740.634277	1047.073853	3319.548584	1337.746216	12.791006
740.953979	1040.015137	3290.942139	1327.195190	12.758302
741.273499	1036.002808	3258.174561	1330.687500	13.261111
741.593140	1040.535278	3216.193115	1332.099243	13.401187
741.912598	1036.820190	3186.026367	1337.151733	13.974070
742.232117	1033.996582	3144.416748	1325.708984	13.822480
742.551453	1029.612793	3117.518799	1321.770996	13.992881
742.870850	1035.185425	3078.807373	1322.365479	14.052504
743.190063	1041.798462	3054.658936	1323.628784	14.001483
743.509338	1037.711792	3048.566406	1318.353149	13.956323
743.828552	1042.021484	3035.489014	1315.380981	13.712764
744.147705	1041.724243	3030.287842	1316.124146	13.798900
744.466797	1051.086304	3007.328369	1317.312988	13.609087
744.785828	1047.296875	3000.418213	1320.062134	13.965608
745.104858	1042.169922	2992.764893	1316.718628	14.075127
745.423706	1041.947144	2983.699951	1320.730835	14.357322
745.742615	1043.581787	2977.012451	1316.792847	14.130895
746.061401	1045.587891	2963.192383	1323.182739	14.476127
746.380249	1034.962524	2965.867188	1320.953735	14.811255
746.698975	1029.612793	2963.638428	1320.953735	15.063965
747.017639	1031.990479	2949.074951	1319.393433	14.991669
747.336304	1036.597290	2939.118164	1318.278931	14.805706
747.654907	1041.203979	2930.796143	1324.891846	15.013180
747.973389	1039.643677	2941.942139	1320.953735	14.787904
748.291931	1041.575562	2943.130859	1322.439819	14.770239
748.610352	1042.541504	2942.685303	1309.585449	14.053881
748.928711	1043.284546	2941.644531	1314.638062	14.294102
749.247070	1041.352661	2939.044189	1314.638062	14.400939
749.565308	1047.965576	2937.557861	1323.405762	14.576699
749.883545	1055.098633	2931.390869	1323.703003	14.315701
750.201782	1052.721069	2917.273438	1327.269531	14.724631
750.519836	1050.046021	2900.406982	1327.640991	15.002207
750.837952	1038.008911	2887.032471	1319.987793	15.250151
751.155884	1040.981079	2869.422607	1312.929077	14.873213
751.473877	1031.172974	2868.976563	1313.597778	15.367518
751.791809	1033.922363	2871.428711	1321.919800	15.673276
752.109619	1030.207153	2889.632813	1328.829956	16.059948
752.427490	1039.049316	2879.750732	1334.922729	16.073950
752.745300	1044.250488	2887.032227	1329.498535	15.479210
753.062988	1054.281372	2877.001221	1324.371704	14.817984
753.380615	1049.897583	2888.741211	1315.529663	14.445604
753.698303	1046.330933	2881.533936	1318.576050	14.834605
754.015808	1044.027588	2872.246094	1320.433594	15.118872
754.333374	1037.637573	2866.227539	1316.569824	15.253953
754.650757	1037.711792	2860.580811	1308.396606	14.849383
754.968262	1037.860474	2868.307861	1309.808472	14.856915
755.285583	1042.541382	2858.574219	1319.170532	15.232607
755.602905	1045.067749	2853.298828	1323.257202	15.384619
755.920105	1045.364990	2852.927002	1330.687378	15.784929
756.237305	1044.844849	2858.053955	1332.619263	15.871000
756.554443	1044.473267	2863.180908	1341.164185	16.313282
756.871582	1039.717896	2871.057373	1338.414917	16.310303
757.188599	1043.061523	2864.666992	1336.928833	16.132324
757.505615	1042.541504	2872.246094	1334.402588	15.951268
757.822510	1039.346436	2880.493408	1335.739990	16.098310
758.139465	1038.529175	2903.007080	1342.130005	16.283422
758.456238	1037.563232	2926.858398	1346.662476	16.360559
758.773010	1039.420776	2952.938721	1347.182617	16.083561
759.089783	1038.974976	2989.718750	1353.869873	16.142300
759.406433	1043.953247	2999.303467	1361.003052	16.214478
759.723145	1047.965698	2997.223389	1367.615845	16.398558
760.039673	1049.005737	2986.821045	1368.804688	16.503067
760.356201	1045.959473	2993.507813	1364.197876	16.340462
760.672668	1042.838745	2997.743164	1370.662231	16.769285
760.989136	1043.284668	3001.755615	1366.575562	16.507311
761.305481	1042.764404	2988.158203	1369.919312	16.816898
761.621826	1042.764404	2982.510986	1370.439453	16.892673
761.938049	1042.690063	2988.158203	1372.296875	16.942287
762.254333	1041.055298	3030.213623	1372.817017	16.678497
762.570496	1039.049194	3105.333740	1378.835571	16.444315
762.886597	1032.733398	3237.444092	1398.748657	16.601509
763.202637	1033.105103	3412.649658	1430.030151	16.680716
763.518677	1037.414673	3635.037842	1470.376587	16.667620
763.834656	1043.061646	3847.469482	1509.459595	16.630890
764.150574	1044.399048	3981.363037	1538.289185	16.816351
764.466370	1037.340210	4001.499023	1538.363403	16.902712
764.782288	1034.962524	3898.441162	1526.549438	17.167473
765.097961	1033.773804	3755.333984	1506.339233	17.363770
765.413696	1034.739624	3593.725586	1486.425903	17.650988
765.729309	1039.643677	3438.209717	1457.745117	17.431309
766.044861	1035.928589	3303.127686	1432.110718	17.474518
766.360474	1040.089478	3198.955078	1414.426636	17.339529
766.675903	1034.516846	3122.274414	1409.448364	17.958576
766.991394	1033.550903	3062.015381	1405.658813	18.344315
767.306763	1037.340454	2999.897705	1398.674438	18.411386
767.622131	1040.981323	2953.607422	1387.083374	18.095646
767.937378	1045.513550	2905.458984	1371.182495	17.509596
768.252625	1048.931519	2870.313721	1362.563232	17.219435
768.567810	1048.337158	2817.707764	1351.343506	17.125092
768.882996	1046.628174	2791.627686	1351.937988	17.496269
769.197998	1042.764282	2762.129150	1337.523315	17.143484
769.513062	1042.987305	2750.612305	1332.767944	16.969805
769.828064	1047.296875	2713.758545	1326.303589	16.742462
770.142944	1052.795288	2685.523193	1339.455078	17.557108
770.457825	1057.327759	2668.359131	1337.077515	17.364637
770.772705	1056.733276	2654.538818	1328.384155	17.001497
771.087402	1050.789063	2640.792725	1314.712402	16.598913
771.402100	1043.879028	2618.873535	1317.907349	17.398684
771.716736	1042.541504	2595.691406	1315.380981	17.566847
772.031372	1044.027588	2571.988525	1318.056030	17.934258
772.345947	1042.838745	2561.809326	1320.953735	18.309439
772.660461	1038.974976	2550.069336	1322.662720	18.773663
772.974854	1036.002930	2543.604980	1318.947632	18.767864
773.289246	1041.501221	2530.973389	1304.458496	17.654394
773.603638	1041.352539	2529.487549	1309.734009	18.034752
773.917908	1042.838745	2525.995361	1310.625610	18.055199
774.232178	1046.628052	2518.565186	1312.557617	18.066639
774.546265	1047.296875	2510.391602	1304.681519	17.591797
774.860474	1046.479614	2496.571533	1304.309937	17.780275
775.174561	1038.306274	2481.710938	1303.344116	18.361992
775.488586	1037.043091	2461.277344	1306.539185	18.922174
775.802551	1037.711792	2448.274658	1298.737305	18.505060
776.116516	1035.482788	2433.488525	1304.310059	19.229340
776.430359	1036.597290	2426.578369	1302.972534	19.163948
776.744202	1033.922485	2420.782715	1302.898193	19.394579
777.057922	1038.974976	2428.658936	1293.015869	18.280479
777.371704	1042.392944	2423.754639	1288.334839	17.804308
777.685303	1042.318604	2426.875488	1296.953979	18.391109
777.998962	1041.501343	2407.185303	1297.697144	18.759523
778.312500	1035.482788	2398.566162	1304.532837	19.738340
778.626038	1039.197876	2384.151367	1300.074585	19.396709
778.939453	1035.557007	2387.792236	1306.241821	20.017584
779.252869	1040.163696	2399.606445	1307.059204	19.632713
779.566223	1042.764282	2401.984131	1302.155151	19.083805
779.879578	1047.371094	2394.628174	1297.994263	18.602476
780.192749	1042.318481	2381.996582	1299.331665	19.184696
780.505920	1036.448608	2366.467285	1303.715454	20.094969
780.819031	1032.510620	2363.792480	1303.492554	20.354963
781.132141	1044.027710	2353.241455	1298.142944	19.409760
781.445190	1044.770508	2355.990967	1301.858032	19.606735
781.758118	1044.993530	2344.176514	1294.130493	19.176434
782.071045	1033.104980	2345.216797	1289.003540	19.502802
782.383911	1037.637573	2327.086914	1279.938721	18.791056
782.696838	1044.027466	2323.446045	1273.325684	17.922064
783.009583	1048.931519	2307.545410	1271.691040	17.698797
783.322266	1042.913086	2300.412354	1273.177124	18.311266
783.634888	1038.009155	2284.437256	1282.910767	19.648273
783.947510	1039.718018	2273.886475	1283.282349	19.735096
784.260132	1040.683960	2267.718994	1280.384521	19.534941
784.572571	1037.488892	2261.700439	1276.817871	19.549643
784.885010	1032.213379	2260.214355	1273.474243	19.646635
785.197449	1030.430054	2250.332275	1272.582642	19.850164
785.509766	1034.293945	2245.427979	1268.347534	19.325159
785.822083	1040.163696	2245.502441	1271.542480	19.196163
786.134277	1046.776733	2250.406250	1270.873657	18.618431
786.446533	1043.061646	2257.093506	1285.214233	19.946148
786.758606	1036.745850	2247.508545	1283.282349	20.362083
787.070740	1032.510620	2254.641846	1284.471069	20.616480
787.382690	1043.135864	2255.384766	1274.440308	19.080606
787.694641	1040.163696	2275.298096	1277.040894	19.178253
788.006653	1036.745972	2305.390625	1293.090332	20.206160
788.318481	1024.634521	2350.343750	1304.012817	21.073874
788.630310	1031.173218	2378.653076	1316.792847	21.196579
788.942017	1033.699341	2397.228760	1305.424438	19.928070
789.253784	1044.993408	2414.689697	1310.402832	19.377247
789.565430	1045.736450	2428.138672	1306.910645	18.892778
789.877014	1047.371216	2404.213135	1308.991089	19.281528
790.188538	1042.170044	2355.396240	1294.130493	19.186371
790.500061	1040.609619	2319.210938	1290.118042	19.514170
790.811462	1036.820190	2297.811768	1284.248169	19.621700
791.122925	1041.872681	2275.818115	1291.083984	20.196299
791.434204	1045.142090	2238.518066	1281.796265	19.830647
791.745483	1047.296753	2220.759521	1282.762085	20.065855
792.056702	1039.346558	2210.357422	1277.338013	20.323591
792.367920	1034.665405	2191.930176	1280.384399	21.232738
792.678955	1031.173218	2166.667236	1277.115112	21.659462
792.990112	1037.191650	2158.716797	1271.468262	20.889109
793.301086	1044.027588	2164.364014	1267.009888	19.903156
793.612122	1045.810913	2159.088623	1267.010010	19.869175
793.922974	1042.392944	2154.407471	1267.455933	20.239212
794.233826	1041.649902	2154.481689	1269.833374	20.504759
794.544556	1054.429932	2154.259033	1272.433960	19.821627
794.855286	1052.275024	2144.079346	1279.195679	20.784004
795.166016	1050.714844	2141.404541	1280.681641	21.084530
795.476624	1038.900757	2145.788330	1279.641479	21.749338
795.787292	1040.609741	2166.518799	1282.167847	21.454494
796.097778	1040.981079	2190.592773	1282.539307	21.012157
796.408264	1045.885132	2217.118896	1284.991333	20.414900
796.718689	1046.479492	2231.756592	1289.003540	20.461380
797.029053	1048.485596	2240.970215	1296.285278	20.780115
797.339355	1040.535156	2235.249023	1290.341064	20.909267
797.649658	1041.947021	2227.447021	1286.700195	20.645565
797.959839	1041.278320	2205.230713	1284.991211	20.938391
798.270020	1057.996338	2181.676514	1281.424683	19.883625
798.580078	1061.711548	2159.237061	1279.418579	19.836170
798.890137	1061.488647	2148.091797	1271.839844	19.358604
799.200195	1051.011963	2132.488037	1278.898560	21.071812
799.510071	1048.262695	2125.057861	1270.204956	20.611372
799.820007	1043.210205	2113.838135	1275.331909	21.680893
800.129883	1038.231934	2126.172607	1270.502319	21.349545
800.439575	1036.820190	2128.921631	1277.783813	22.064217
800.749329	1046.776733	2119.039307	1265.895508	20.435179
801.058960	1045.364868	2086.494873	1268.273071	21.410217
801.368591	1044.399048	2068.364990	1269.239136	21.957769
801.678162	1031.841919	2071.262451	1276.297852	23.518482
801.987671	1035.036987	2084.785889	1269.833496	22.366920
802.297119	1032.882202	2085.157227	1260.694214	21.649475
802.606506	1034.442505	2063.014893	1255.047241	21.447662
802.915894	1034.219604	2054.172852	1262.626099	22.393820
803.225159	1037.340210	2044.439087	1267.009888	22.805077
803.534424	1038.008911	2053.727295	1273.474243	23.182148
803.843628	1041.501099	2053.058594	1263.889282	21.984730
804.152771	1045.885132	2053.058594	1263.294800	21.586119
804.461792	1050.937622	2053.653076	1255.344360	20.385319
804.770874	1054.652710	2053.355713	1270.279419	21.590673
805.079773	1051.531982	2055.882080	1268.644775	21.617243
805.388733	1049.823120	2053.727051	1273.102905	22.241150
805.697571	1039.717896	2048.971924	1268.273071	22.645952
806.006470	1038.454834	2052.241211	1268.793091	22.720591
806.315125	1031.916138	2058.259766	1274.440186	23.629908
806.623901	1036.374268	2068.067627	1273.622925	22.996044
806.932495	1041.203979	2067.473389	1278.006836	23.074142
807.241150	1041.129639	2054.544678	1274.365845	23.014875
807.549622	1040.609497	2049.343506	1268.570313	22.598703
807.858154	1034.591064	2042.730469	1258.242310	22.184555
808.166565	1042.244263	2039.683960	1249.325928	20.761322
808.474915	1043.507446	2027.721313	1239.889526	19.953192
808.783264	1041.798462	2002.458374	1244.124878	21.061192
809.091492	1042.764404	1987.375000	1247.022583	21.623533
809.399719	1042.690063	1973.777466	1253.041016	22.591967
809.707825	1043.581665	1974.966431	1253.784180	22.568815
810.015930	1039.569336	1965.455688	1256.459106	23.425097
810.323975	1041.278320	1960.625977	1259.059570	23.688671
810.632080	1039.049316	1951.709595	1244.199097	22.478220
810.939880	1042.170044	1948.588867	1237.883301	21.591923
811.247864	1042.467163	1947.994507	1240.483887	21.867559
811.555664	1039.792236	1941.084351	1243.976196	22.654581
811.863464	1038.677734	1936.254517	1238.403442	22.251657
812.171143	1025.972046	1919.090820	1234.688354	23.369379
812.478882	1024.040039	1908.836914	1242.044312	24.638906
812.786438	1025.229004	1904.601685	1249.697510	25.525982
813.094055	1037.934692	1903.709961	1245.313599	23.952972
813.401489	1045.365112	1909.134155	1236.174438	22.090319
813.708984	1039.123535	1910.025757	1235.505737	22.549282
814.016357	1037.043091	1915.078247	1239.815308	23.093861
814.323730	1037.043091	1908.465332	1245.387939	23.908600
814.630981	1040.906860	1901.332397	1242.935913	23.480131
814.938232	1040.832520	1903.635742	1232.161987	22.175331
815.245361	1040.238037	1913.369507	1231.864746	21.947062
815.552490	1042.838745	1902.075562	1232.533569	22.077129
815.859619	1042.838745	1893.827759	1236.620239	22.771328
816.166565	1050.789185	1887.437866	1230.675903	21.500866
816.473572	1051.086304	1899.177612	1235.951416	21.797785
816.780457	1050.789063	1909.431274	1240.260986	22.066458
817.087341	1039.717896	1913.517944	1252.446655	24.345245
817.394043	1041.501099	1930.979126	1246.725220	23.072422
817.700806	1044.473267	1932.167847	1243.158813	22.382196
818.007507	1052.423706	1936.031616	1240.112427	21.241177
818.314209	1043.358887	1933.951172	1246.056519	22.759869
818.620667	1035.036987	1940.489868	1255.344360	24.331181
818.927246	1030.430176	1954.310059	1263.369141	25.213121
819.233704	1032.956421	1975.560669	1269.536255	25.098532
819.540161	1037.414551	2020.365234	1273.622925	24.030542
819.846497	1043.284546	2085.008789	1286.031494	23.302420
820.152832	1043.061646	2165.924316	1299.331665	22.822918
820.458984	1044.547607	2253.601807	1321.027954	22.867491
820.765259	1036.225708	2345.142578	1335.442871	22.859905
821.071350	1040.683960	2449.314697	1363.380737	22.908543
821.377502	1040.386719	2608.471436	1409.745605	23.554779
821.683472	1039.123535	2936.295166	1490.661133	23.800566
821.989441	1032.064819	3585.998047	1642.981812	23.920633
822.295349	1027.755249	4592.650879	1886.620483	24.092299
822.601196	1025.377563	5876.304688	2200.029297	24.214994
822.907043	1034.368164	7065.445313	2492.856201	24.182878
823.212769	1037.414551	7838.862793	2655.876465	23.795843
823.518494	1046.628052	7880.323730	2655.802002	23.547638
823.824097	1040.981079	7282.187012	2509.574463	23.530602
824.129700	1038.826294	6311.273438	2288.895264	23.709463
824.435242	1032.733521	5327.876465	2062.123291	23.966368
824.740723	1031.618896	4521.171875	1856.825073	23.647905
825.046082	1039.866577	3935.220703	1714.163696	23.288935
825.351501	1039.272095	3509.466064	1609.396973	23.080168
825.656799	1038.677734	3216.862061	1548.914551	23.424870
825.962036	1037.637573	3020.182617	1505.150269	23.581442
826.267212	1034.888306	2937.112061	1478.847046	23.338934
826.572449	1041.203979	2942.164795	1481.373413	23.155104
826.877502	1038.083374	3060.305908	1512.729126	23.471489
827.182495	1046.553833	3303.721924	1586.288696	23.912039
827.487488	1042.021362	3642.468018	1666.535767	24.015657
827.792419	1041.129761	3914.862061	1726.795288	23.859755
828.097290	1035.185547	4027.430420	1753.841431	24.017282
828.402100	1039.272217	3897.697998	1727.463867	24.075897
828.706848	1039.940918	3617.056641	1673.297241	24.576170
829.011597	1043.358887	3244.725342	1574.846191	24.143518
829.316223	1042.912964	2889.707031	1491.032593	24.264732
829.620789	1044.399048	2609.065918	1415.912598	23.743938
829.925354	1043.804565	2398.120361	1367.244507	23.882166
830.229797	1041.278320	2258.282471	1338.563599	24.427631
830.534302	1034.219604	2140.289795	1318.501831	25.702005
830.838562	1032.733521	2062.717773	1302.526733	26.193916
831.142944	1028.126831	2006.024902	1278.675659	25.621161
831.447144	1031.098877	1972.885864	1262.106079	24.528605
831.751404	1035.631226	1947.697266	1252.966797	23.828930
832.055542	1043.358765	1929.121460	1253.635498	23.739624
832.359619	1044.399048	1937.369141	1255.493164	23.639551
832.663635	1042.244263	1959.957153	1262.626099	24.014246
832.967651	1038.380493	2005.727661	1269.833496	23.926571
833.271545	1033.327881	2102.246826	1294.056152	24.391771
833.575439	1034.591064	2262.369385	1329.424316	24.013557
833.879211	1040.758179	2479.036133	1388.494995	24.177303
834.183044	1041.352661	2693.548096	1441.918579	24.244463
834.486694	1040.238159	2851.886963	1484.642578	24.530384
834.790344	1038.008911	2914.969971	1489.843750	24.072681
835.093933	1045.439331	2860.134766	1482.190552	24.067467
835.397522	1046.405151	2725.572510	1448.754517	23.961243
835.700928	1048.188599	2548.211914	1414.203735	24.400629
836.004395	1042.095703	2377.984375	1370.364868	24.573093
836.307739	1044.696167	2221.874268	1331.430420	24.357763
836.611023	1042.169922	2093.256348	1297.548462	24.296627
836.914307	1047.742554	1994.656616	1276.669434	24.176100
837.217529	1046.628052	1925.629395	1263.666382	24.691467
837.520691	1047.445435	1873.914673	1246.279663	24.058273
837.823730	1051.829346	1821.457031	1219.604858	21.799568
838.126831	1051.977905	1774.720581	1203.704102	20.993114
838.429749	1055.321533	1743.513306	1197.611206	20.675875
838.732727	1051.977905	1718.473267	1201.623657	22.452633
839.035522	1052.646606	1698.337280	1198.874390	22.646725
839.338379	1041.426880	1685.259888	1195.753662	23.970001
839.641113	1039.420776	1693.804810	1192.335815	23.367783
839.943848	1035.557129	1727.389648	1195.233521	23.080210
840.246460	1042.318604	1774.869141	1206.824829	22.456638
840.549072	1035.185425	1826.806641	1220.050659	23.352739
840.851563	1031.247437	1861.877563	1235.579956	24.599701
841.154053	1025.749023	1872.280151	1244.644897	25.857983
841.456482	1024.560303	1844.490845	1231.196167	25.201630
841.758850	1033.253662	1790.026978	1214.923706	24.005873
842.061157	1033.848022	1726.572388	1203.332520	24.466368
842.363403	1040.386597	1679.092896	1197.239624	24.557926
842.665588	1034.293823	1646.473999	1188.992065	25.270050
842.967712	1038.380493	1613.780884	1176.806519	24.057339
843.269775	1043.581665	1581.013306	1174.057251	24.277615
843.571777	1046.033813	1554.338745	1169.822021	24.353140
843.873840	1037.786133	1538.214844	1162.986206	25.018562
844.175659	1036.448608	1528.927124	1156.967651	24.471939
844.477600	1037.265991	1521.125366	1156.224609	24.585371
844.779297	1043.804688	1506.041992	1151.246338	23.243830
845.081116	1036.151489	1493.633301	1153.624146	25.678104
845.382751	1031.841919	1484.716919	1156.150513	27.448765
845.684387	1032.510620	1477.881226	1159.642700	28.545233
845.985962	1039.495117	1473.200073	1152.509644	26.057928
846.287537	1047.891235	1457.076294	1139.506470	22.389683
846.588989	1051.383667	1453.807007	1134.082397	20.550182
846.890381	1050.343384	1444.073242	1139.655151	22.683514
847.191711	1047.817017	1440.952637	1144.633423	24.626719
847.493042	1050.566284	1443.478882	1137.128784	22.030981
847.794250	1048.188477	1442.364380	1127.840942	20.207340
848.095459	1042.392822	1437.832031	1124.943115	20.875597
848.396606	1038.083374	1424.903320	1132.596313	24.433315
848.697693	1038.157593	1423.342773	1130.292969	23.919762
848.998657	1044.919189	1425.126343	1130.738892	22.571827
849.299622	1051.160645	1420.147827	1126.577759	20.438951
849.600464	1055.247192	1404.767212	1126.800659	20.471922
849.901367	1048.411499	1396.222290	1119.816284	20.529779
850.202087	1038.231934	1391.392700	1123.159912	24.047966
850.502808	1035.928589	1387.900513	1126.429199	25.712452
850.803467	1042.987427	1391.467163	1138.986328	27.547915
851.104065	1048.262817	1396.742554	1134.973999	24.882704
851.404663	1054.652954	1406.253296	1130.590088	21.597570
851.705139	1060.151245	1404.990112	1118.404541	16.892902
852.005615	1060.522827	1405.138672	1128.212524	19.642073
852.306030	1047.668335	1402.240845	1131.556152	23.658861
852.606384	1035.482788	1400.829102	1127.320801	25.137249
852.906616	1033.625122	1393.176147	1113.797729	22.297977
853.206909	1037.860352	1390.946899	1109.339722	20.244150
853.506958	1035.482788	1385.002808	1114.838013	22.704058
853.807129	1032.436401	1374.674683	1118.255981	25.075974
854.107178	1036.300171	1371.925415	1116.770020	23.976101
854.407166	1040.386719	1371.108032	1115.283813	22.646589
854.707092	1037.488892	1376.829468	1112.831909	22.202772
855.007019	1038.380493	1362.191895	1111.494507	22.579197
855.306763	1042.838745	1357.956543	1111.643066	21.834476
855.606567	1049.600220	1350.006226	1113.872192	21.395037
855.906250	1045.587769	1356.098999	1121.153809	24.336008
856.205933	1041.203979	1354.167114	1118.999023	24.857574
856.505493	1037.860474	1355.430176	1118.776001	25.479612
856.805054	1042.318604	1351.937866	1119.221924	24.838028
857.104492	1043.433105	1350.823364	1119.221802	24.655529
857.403931	1045.662231	1352.532349	1111.568726	21.476999
857.703308	1039.569336	1353.424072	1103.469604	20.359823
858.002563	1041.798340	1347.182739	1108.373657	21.800497
858.301819	1036.374268	1345.399414	1111.420044	24.284683
858.601013	1040.238159	1343.690430	1109.265259	22.747267
858.900208	1037.711914	1343.021606	1101.463501	20.880957
859.199219	1033.848022	1339.306519	1099.903198	21.624928
859.498291	1036.448608	1345.547852	1103.618286	21.730780
859.797302	1029.687012	1356.098999	1108.596680	24.174868
860.096191	1037.414673	1351.046387	1110.602661	23.335646
860.395020	1034.888306	1345.622437	1113.574829	25.322781
860.693787	1041.055542	1342.353027	1109.042358	22.564680
860.992554	1040.535278	1351.789551	1103.841187	20.338968
861.291260	1035.036987	1343.096069	1093.884644	19.102718
861.589844	1038.157593	1336.260254	1092.175781	18.120667
861.888428	1038.380493	1324.520264	1105.773071	23.552328
862.186890	1042.987305	1332.024780	1112.163208	23.933195
862.485413	1039.940918	1324.148804	1112.757568	25.620911
862.783813	1046.108032	1328.755615	1105.847412	21.135641
863.082153	1044.993530	1324.074585	1107.036255	22.231077
863.380371	1044.027588	1329.052734	1115.506836	25.078226
863.678589	1035.705566	1330.984741	1112.757568	26.094627
863.976746	1043.433228	1334.402710	1116.918579	25.255346
864.274902	1045.587891	1330.316040	1111.494385	23.147165
864.572937	1043.358887	1327.492432	1118.033081	26.281372
864.870911	1035.854126	1320.507935	1121.302368	30.018303
865.168884	1038.009033	1322.960083	1121.228027	29.204662
865.466736	1046.628174	1327.046753	1113.872070	23.979830
865.764587	1049.005859	1337.820435	1108.225098	20.504242
866.062317	1049.897339	1334.402466	1111.048584	21.493898
866.360107	1048.114136	1328.383911	1115.655396	24.098660
866.657715	1046.702393	1323.851440	1111.717285	23.458458
866.955322	1043.581665	1328.532593	1106.516113	22.086065
867.252808	1045.067749	1328.904175	1107.853516	22.120405
867.550293	1041.278320	1321.845337	1109.636841	24.364418
867.847717	1037.934692	1320.433716	1114.094971	26.959484
868.145081	1031.767578	1319.393433	1109.562622	27.047306
868.442383	1035.482666	1322.959961	1106.218872	24.605841
868.739624	1034.739624	1322.365356	1107.630737	25.342348
869.036804	1038.380493	1321.696655	1110.454102	25.439285
869.333984	1042.467163	1318.055908	1120.039185	28.147747
869.631042	1043.804688	1315.158081	1116.249878	26.697727
869.928101	1039.569458	1316.347046	1110.528442	25.637547
870.224976	1034.442505	1311.814575	1097.971313	22.903824
870.521851	1038.008911	1314.489380	1098.937256	22.037125
870.818726	1046.033691	1320.953735	1094.479126	17.621645
871.115479	1041.872681	1324.966187	1097.153931	19.527559
871.412231	1040.609741	1317.387207	1092.027222	18.577192
871.708862	1030.578735	1301.412109	1099.828979	25.569317
872.005493	1031.173096	1300.074707	1097.748413	24.758244
872.302063	1031.693237	1311.294434	1104.955688	26.202482
872.598572	1031.841919	1314.935181	1098.565796	23.569574
872.895020	1032.213379	1325.114624	1104.287109	24.606836
873.191406	1033.030762	1324.074341	1098.194336	22.389627
873.487671	1039.049194	1331.578979	1106.590454	23.088678
873.783997	1038.603394	1327.789673	1110.528442	24.871529
874.080200	1036.968750	1324.817505	1114.540894	26.948925
874.376343	1036.671509	1321.028076	1114.094971	27.227598
874.672424	1045.290649	1323.925903	1108.745239	22.773354
874.968445	1045.885132	1328.161011	1100.720581	19.426189
875.264465	1044.547729	1332.990845	1092.993042	16.795448
875.560364	1041.798462	1328.235474	1094.033325	18.236073
875.856201	1042.467163	1323.777222	1097.971313	19.730597
876.152039	1047.371094	1317.981567	1106.516113	21.856146
876.447754	1043.953247	1317.833130	1105.624634	22.517677
876.743469	1041.872681	1317.981689	1106.293335	23.331602
877.039063	1039.643677	1318.353149	1102.801025	22.660639
877.334595	1044.547607	1314.043579	1103.618286	21.918947
877.630127	1044.770508	1315.901123	1105.995972	22.581539
877.925537	1041.352661	1322.068237	1107.927856	23.716246
878.221008	1040.609619	1322.588379	1109.934082	24.584995
878.516296	1039.940918	1330.018677	1111.568848	24.692665
878.811646	1037.265991	1339.380737	1113.723511	25.307444
879.106812	1040.832520	1358.179321	1118.181641	24.373688
879.401978	1040.312378	1376.086304	1128.584106	26.289036
879.697083	1042.244263	1393.027344	1131.036011	25.312437
879.992126	1033.848145	1425.349121	1134.676880	25.754402
880.287109	1035.482788	1460.420044	1142.478638	25.179211
880.582031	1034.665405	1532.047852	1170.565186	27.322994
880.876892	1040.832520	1653.978516	1205.413086	26.841986
881.171753	1044.101807	1886.174438	1265.523926	26.294895
881.466492	1052.572266	2248.028809	1358.402344	25.582701
881.761230	1055.544434	2738.278076	1487.986328	25.698772
882.055786	1049.154419	3237.592529	1615.786987	25.892101
882.350403	1040.758179	3593.948242	1708.665405	26.159716
882.644958	1030.281616	3671.371826	1733.408203	26.622587
882.939453	1030.652954	3486.209229	1695.885254	27.090902
883.233826	1036.299927	3143.302490	1604.938843	26.988052
883.528137	1044.176025	2769.857178	1509.459839	26.962328
883.822449	1049.228638	2453.178955	1424.754761	26.747822
884.116577	1045.439209	2190.592773	1353.944214	26.940056
884.410828	1043.804565	1993.913574	1294.056152	26.339251
884.704956	1046.033691	1829.630249	1241.821411	24.985781
884.999023	1044.176147	1721.742676	1209.202515	24.355743
885.292969	1045.736450	1640.678345	1184.013794	23.242159
885.586914	1045.364868	1586.957642	1168.484497	22.732880
885.880798	1051.977905	1544.679321	1158.230713	21.565355
886.174622	1053.761108	1508.345337	1155.258667	22.327559
886.468384	1050.343262	1477.509644	1151.023438	23.569311
886.762085	1043.135864	1457.893555	1142.775879	24.023668
887.055664	1035.259766	1439.763794	1139.357910	25.734760
887.349304	1030.430176	1428.395508	1136.311401	26.605640
887.642822	1034.591064	1405.213013	1132.299194	26.363287
887.936340	1034.665405	1384.036743	1116.026855	23.287958
888.229736	1042.541504	1367.615845	1101.909424	18.262875
888.523071	1038.826294	1358.550903	1100.274780	19.219193
888.816284	1043.433105	1351.046387	1106.144653	20.386490
889.109619	1042.392944	1330.910278	1116.026733	25.521444
889.402710	1040.461060	1306.762085	1114.169312	27.678547
889.695862	1038.157715	1294.947876	1103.543823	25.462856
889.988892	1032.362061	1283.653809	1098.491333	26.315735
890.281921	1030.281494	1269.239136	1108.522339	32.742558
>>>>>End Processed Spectral Data<<<<<
