Jaz Data File
++++++++++++++++++++++++++++++++++++
Date: Fri Jun 04 13:25:54 2021
User: jaz
Dark Spectrum Present: Yes
Reference Spectrum Present: Yes
Processed Spectrum Present: Yes
Spectrometers: JAZA3586
Integration Time (usec): 30000 (JAZA3586)
Spectra Averaged: 10 (JAZA3586)
Boxcar Smoothing: 1 (JAZA3586)
Correct for Electrical Dark: No (JAZA3586)
Strobe/Lamp Enabled: Yes (JAZA3586)
Correct for Detector Non-linearity: No (JAZA3586)
Correct for Stray Light: No (JAZA3586)
Number of Pixels in Processed Spectrum: 2048
>>>>>Begin Processed Spectral Data<<<<<
W	D	R	S	P
191.335022	0.000000	0.000000	0.000000	0.000000
191.713211	311.477020	312.814453	315.117828	272.223602
192.091385	633.207764	632.910583	629.492676	1250.112915
192.469528	961.923035	960.808533	948.548584	1200.038330
192.847641	980.052917	975.892029	955.458740	591.079895
193.225739	992.610046	980.275879	968.387390	196.386627
193.603790	996.250793	976.857910	979.532715	86.207291
193.981842	998.479980	981.761902	988.374817	60.444527
194.359863	1002.269348	993.427429	991.198242	125.211578
194.737854	1008.362244	1007.024719	993.055847	1144.382568
195.115829	1014.380798	1011.705872	997.068176	647.218567
195.493774	1009.105286	1009.996887	994.170410	-1675.061646
195.871704	1005.092957	1001.600769	995.805115	265.960571
196.249603	1006.578918	1002.789551	997.885559	229.414505
196.627457	1010.442688	1001.675049	1003.681152	77.119225
197.005310	1014.232178	1007.322021	998.108459	233.333633
197.383133	1008.956726	999.074402	991.867004	172.932205
197.760910	1008.808105	996.473816	989.860840	153.614563
198.138687	999.743164	995.730774	999.668884	1.851260
198.516449	996.473816	993.798889	999.594543	-116.665909
198.894180	987.260254	990.975403	998.925781	313.998901
199.271866	985.328369	985.774170	987.631775	516.689514
199.649536	986.740173	987.557434	984.065247	-327.303955
200.027191	995.879395	990.380920	983.173645	231.077744
200.404816	1000.931885	998.331360	984.213867	642.870911
200.782410	1001.526367	1013.191895	988.672058	-110.190552
201.159988	993.650208	1033.104980	988.151917	-13.935680
201.537537	989.043457	1034.442505	993.055908	8.838183
201.915070	987.483154	1032.733521	987.334656	-0.328171
202.292557	986.071350	1022.628357	990.381042	11.788964
202.670029	990.752441	1031.767578	992.387207	3.985762
203.047485	987.037292	1032.659180	992.015625	10.912158
203.424911	993.501709	1033.030762	990.158020	-8.458814
203.802292	994.393311	1027.532349	982.950684	-34.529148
204.179688	989.415039	1024.857544	985.551270	-10.901514
204.557037	989.935242	1026.046387	976.486328	-37.243111
204.934357	985.105469	1025.080444	974.034363	-27.695091
205.311661	991.124023	1022.851379	975.297546	-49.882748
205.688934	988.449036	1025.749146	976.189209	-32.868073
206.066177	986.442871	1022.702637	976.635010	-27.048882
206.443390	980.498718	1022.925598	973.440002	-16.637367
206.820587	974.777405	1023.148438	973.588562	-2.457758
207.197769	975.594727	1024.040039	971.730957	-7.975528
207.574921	976.560730	1026.937866	971.210876	-10.619606
207.952042	980.944580	1025.972046	975.148926	-12.871376
208.329147	978.492676	1032.807861	975.966248	-4.651422
208.706223	988.597717	1036.448730	984.733948	-8.074582
209.083267	985.254089	1043.804565	978.195313	-12.055883
209.460297	984.139465	1034.962646	972.696838	-22.514582
209.837280	970.170593	1031.098999	967.272766	-4.756118
210.214264	975.817566	1026.120605	972.028137	-7.533200
210.591217	979.161194	1026.937988	984.659668	11.508671
210.968124	984.585388	1026.640747	979.235535	-12.720980
211.345016	982.727783	1025.823364	980.350098	-5.517238
211.721893	983.470886	1028.572632	976.040527	-16.474659
212.098724	985.774231	1025.526123	975.371826	-26.168325
212.475555	982.579285	1022.702637	970.021973	-31.296766
212.852356	983.768066	1024.411621	963.334778	-50.274364
213.229126	973.960144	1024.040039	968.758850	-10.385992
213.605865	967.867249	1021.365051	972.399719	8.472256
213.982590	961.254333	1026.714966	977.898132	25.425661
214.359283	966.975647	1027.458008	978.566895	19.164675
214.735931	972.696960	1023.297058	979.681458	13.803328
215.112579	980.870300	1020.101990	979.681396	-3.030468
215.489197	983.322205	1018.170105	979.607117	-10.660866
215.865799	985.402649	1020.919373	979.532776	-16.527067
216.242355	981.241699	1023.594238	975.966248	-12.456046
216.618896	989.712341	1033.402222	969.650574	-45.918568
216.995407	986.963074	1032.213379	970.022034	-37.438511
217.371902	984.065247	1022.182617	967.644348	-43.079830
217.748367	973.811523	1014.009216	974.777527	2.403131
218.124802	970.096375	1014.380676	968.164551	-4.362322
218.501236	968.461670	1019.656250	970.839355	4.644409
218.877609	970.616455	1020.027832	962.591797	-16.240507
219.253983	970.616455	1025.080444	959.842590	-19.781630
219.630295	977.303711	1029.390015	958.950928	-35.235332
220.006592	975.148926	1033.030762	963.557678	-20.025707
220.382889	981.464661	1030.132935	967.867249	-27.938965
220.759140	980.052917	1032.659180	965.489563	-27.683689
221.135391	981.464600	1044.770630	971.210876	-16.197071
221.511581	978.269531	1045.067749	978.492493	0.333784
221.887772	975.446106	1039.049316	985.179749	15.303697
222.263931	975.297424	1031.470337	982.653503	13.095421
222.640060	974.182922	1034.219604	982.653503	14.109010
223.016159	972.696960	1033.179321	980.944519	13.636304
223.392212	977.452332	1025.749023	975.966248	-3.076989
223.768265	981.539001	1031.693359	979.309814	-4.444653
224.144302	989.489258	1034.888306	982.059021	-16.366503
224.520294	982.727722	1045.067749	988.300476	8.939287
224.896286	981.687500	1049.674561	980.944519	-1.092827
225.272217	967.718567	1049.377319	986.517151	23.020905
225.648148	967.049866	1046.702271	986.888672	24.906727
226.024048	962.740295	1049.600220	989.266418	30.538967
226.399902	971.210876	1062.603149	982.653503	12.520344
226.775772	978.715515	1067.432861	975.371826	-3.768924
227.151581	985.031189	1067.804443	970.765137	-17.235100
227.527374	986.963074	1075.383301	972.994141	-15.798346
227.903137	980.870300	1083.482300	975.297546	-5.430899
228.278870	976.263428	1092.993042	973.068359	-2.737153
228.654572	967.495789	1100.646118	972.399719	3.683003
229.030273	966.455505	1118.850464	973.811462	4.826903
229.405930	962.814697	1131.407471	981.390381	11.018078
229.781555	968.387390	1125.983521	977.749512	5.940578
230.157181	976.189148	1126.280640	971.359558	-3.217764
230.532761	983.470886	1120.039185	966.752747	-12.241596
230.908325	981.390320	1126.429321	967.049988	-9.887225
231.283859	975.074646	1116.546997	980.721680	3.991616
231.659332	970.839355	1116.992798	983.322266	8.540962
232.034821	967.495667	1112.906128	980.944580	9.248931
232.410263	968.238770	1119.816284	970.021973	1.176430
232.785690	966.604065	1116.621338	969.130371	1.684010
233.161087	967.718689	1106.590454	969.204651	1.070024
233.536469	973.439941	1103.915649	973.662842	0.170837
233.911804	971.953918	1105.698853	972.102478	0.111077
234.287140	975.520508	1118.850342	975.520325	-0.000128
234.662430	964.969421	1115.581055	973.439941	5.624081
235.037704	974.108704	1126.949341	980.052917	3.889158
235.412933	977.749512	1133.710938	981.613220	2.477349
235.788162	982.579285	1146.639648	984.956848	1.449200
236.163345	979.830078	1142.552856	984.362488	2.785357
236.538513	978.715393	1139.209351	981.984863	2.037130
236.913635	976.040527	1136.757324	978.789795	1.710629
237.288742	974.182922	1135.494019	978.938416	2.948026
237.663834	973.291321	1140.843872	982.504883	5.498909
238.038879	970.690735	1144.336060	980.127197	5.434331
238.413910	974.183044	1151.915039	977.600891	1.923034
238.788910	972.473938	1156.224609	978.938416	3.518070
239.163879	979.607117	1156.670532	982.133362	1.426746
239.538834	975.594727	1161.945923	989.340759	7.376412
239.913757	976.634949	1177.995483	990.529602	6.900385
240.288651	977.526611	1202.143677	991.867004	6.384374
240.663528	981.910461	1231.418945	987.260254	2.144132
241.038361	982.504883	1261.140015	988.894958	2.293349
241.413177	973.662781	1291.529907	989.489319	4.978979
241.787979	970.319275	1328.755615	996.473816	7.296844
242.162735	968.907532	1368.581909	1000.486145	7.901085
242.537476	972.325439	1401.869507	1003.383972	7.230581
242.912170	973.885742	1423.194214	1001.600647	6.168347
243.286865	971.879639	1427.800903	991.198242	4.237267
243.661514	971.953918	1417.918823	987.483154	3.482165
244.036148	967.644348	1389.460938	990.529541	5.425389
244.410751	977.675110	1368.433105	998.108459	5.229157
244.785339	986.145691	1359.665527	1000.188904	3.759697
245.159882	993.724548	1374.005859	995.953613	0.586162
245.534378	985.476990	1403.949829	990.306641	1.154113
245.908890	980.721619	1468.964722	993.501709	2.617567
246.283356	972.919861	1549.954712	991.792725	3.270663
246.657791	972.102539	1637.111816	999.222961	4.078202
247.032196	970.393555	1702.275391	997.142517	3.654820
247.406586	970.913574	1749.011719	1006.207458	4.535917
247.780960	971.507996	1759.785645	1008.436523	4.684711
248.155289	974.703125	1744.479370	1015.049500	5.241312
248.529602	971.582336	1691.873047	1007.916321	5.044350
248.903870	975.371826	1628.195435	999.445862	3.687679
249.278122	971.359436	1558.722534	991.867004	3.491463
249.652344	966.232605	1513.769409	996.622375	5.550270
250.026550	965.043762	1483.899780	995.953613	5.957308
250.400711	967.272766	1475.651978	998.108398	6.065479
250.774857	981.687500	1483.825317	984.511047	0.562305
251.148987	989.117859	1504.481445	990.455261	0.259507
251.523071	988.449036	1533.162476	988.523438	0.013659
251.897125	988.077576	1547.948608	999.000061	1.950893
252.271164	980.795959	1562.660522	1003.161072	3.843697
252.645187	985.105469	1557.310669	1005.613037	3.583954
253.019165	978.121094	1539.701172	1002.418030	4.326531
253.393112	981.018799	1521.273926	992.238525	2.076746
253.767044	980.350098	1500.023438	988.077576	1.486988
254.140930	986.814453	1492.964478	985.105469	-0.337644
254.514801	988.820740	1475.800659	989.563660	0.152557
254.888657	984.882629	1478.029663	992.610046	1.566960
255.262466	981.761902	1480.258789	995.507813	2.757472
255.636276	985.625671	1499.726074	997.959900	2.399187
256.010010	990.306641	1524.840454	1004.572815	2.668900
256.383759	994.616211	1549.286133	1007.842102	2.384462
256.757446	987.111633	1576.035156	1007.544922	3.469600
257.131134	983.247864	1614.375122	1006.504700	3.684968
257.504791	974.554504	1676.120728	1010.591309	5.136622
257.878418	977.006409	1749.011719	1015.941101	5.043319
258.252014	980.647278	1824.280396	1019.804871	4.641543
258.625580	985.179871	1940.044067	1018.393066	3.478316
258.999115	982.356384	2078.841553	1025.749023	3.957431
259.372650	984.511169	2245.354004	1041.872681	4.549458
259.746124	984.956970	2378.281494	1055.247192	5.044785
260.119598	984.213928	2463.803955	1057.773560	4.971622
260.493042	979.161316	2470.714111	1051.532104	4.852044
260.866425	973.514343	2407.705322	1049.154419	5.274059
261.239838	974.851746	2301.749756	1041.203979	5.000553
261.613159	969.947754	2179.818848	1029.984375	4.962233
261.986511	973.217041	2069.776367	1021.885437	4.438282
262.359802	972.845520	1987.671875	1027.383789	5.374148
262.733063	979.384094	1954.087280	1030.950317	5.290454
263.106293	977.898132	1944.353638	1027.012207	5.081876
263.479523	983.470764	1934.694336	1022.256836	4.077493
263.852692	981.316101	1917.233276	1023.074158	4.461726
264.225861	974.777344	1897.617188	1024.263062	5.362330
264.598969	968.461609	1901.183594	1023.445740	5.895018
264.972076	971.730957	1923.623169	1019.210449	4.987906
265.345154	979.978577	1972.217163	1024.783203	4.515510
265.718201	979.012634	2028.315796	1029.761353	4.836421
266.091217	972.473938	2087.237549	1034.813965	5.592219
266.464203	980.052917	2144.302002	1045.365112	5.609813
266.837158	981.613281	2194.679443	1041.649780	4.949153
267.210114	984.436768	2234.059814	1045.810913	4.911413
267.583038	979.532715	2244.759521	1035.557007	4.428004
267.955902	974.034363	2246.096924	1029.687134	4.375003
268.328766	978.046692	2255.384766	1024.560181	3.641439
268.701569	977.452332	2269.948242	1029.166992	4.001147
269.074371	976.412109	2285.031494	1037.043091	4.633202
269.447144	973.588562	2310.443115	1045.439331	5.374614
269.819885	973.365662	2391.507080	1045.662231	5.097980
270.192596	975.891907	2503.258545	1051.086304	4.923140
270.565277	975.000244	2650.526611	1051.532227	4.567638
270.937927	971.508118	2775.503906	1061.191528	4.971375
271.310577	973.885803	2887.404053	1065.872437	4.807199
271.683136	973.365723	2952.567383	1070.999390	4.932982
272.055725	968.535950	2978.127686	1074.417358	5.268802
272.428284	965.935364	2954.721924	1074.045898	5.436005
272.800812	968.090149	2906.573975	1072.336792	5.377741
273.173279	971.433777	2817.039063	1061.042847	4.855268
273.545776	970.244934	2764.878662	1058.888062	4.939343
273.918152	972.994141	2715.021484	1058.293579	4.896562
274.290558	975.148926	2716.507568	1065.872559	5.209934
274.662964	984.733887	2715.021729	1070.479370	4.955562
275.035278	980.052917	2730.922607	1073.971558	5.364114
275.407593	978.789734	2767.627686	1072.634155	5.246111
275.779907	973.291321	2817.113281	1068.175903	5.146081
276.152161	974.925964	2869.645264	1056.807739	4.321579
276.524384	980.572998	2921.136963	1058.739502	4.028030
276.896606	983.768066	2960.294922	1060.299805	3.872031
277.268799	974.480164	2977.904541	1064.980957	4.517305
277.640930	967.198486	2981.025391	1062.083130	4.711658
278.013031	957.539124	2983.328369	1061.340088	5.123976
278.385162	963.929199	2989.198486	1064.460815	4.963864
278.757233	966.009583	2986.821045	1061.562866	4.728461
279.129272	969.056091	3013.867188	1063.569214	4.622096
279.501282	968.684570	3054.733398	1068.473022	4.783610
279.873230	974.182922	3131.413818	1073.525635	4.605103
280.245178	977.377991	3228.750244	1079.544312	4.537958
280.617126	977.452332	3361.603516	1092.101440	4.808802
280.988983	973.960022	3487.175049	1097.674194	4.922546
281.360870	975.074524	3596.474609	1102.800903	4.872449
281.732697	977.452332	3668.622314	1103.766846	4.693666
282.104492	972.102539	3716.176514	1107.407837	4.930818
282.476288	966.678467	3728.436279	1105.773071	5.036452
282.848053	966.604187	3722.343506	1100.423340	4.856017
283.219757	976.114807	3725.612549	1098.565796	4.453577
283.591461	981.018799	3703.024414	1100.497559	4.389365
283.963135	977.898132	3719.965820	1094.776245	4.262408
284.334747	969.724792	3770.863037	1094.702026	4.461659
284.706360	972.473938	3865.301758	1100.051636	4.410138
285.077942	975.371765	3956.099609	1115.432373	4.698873
285.449524	980.572998	4051.653076	1124.274536	4.679186
285.821014	978.195251	4086.278076	1123.085571	4.661726
286.192535	979.978516	4123.354980	1116.621216	4.347004
286.563995	983.693665	4116.593262	1117.438599	4.269046
286.935425	981.687500	4096.902832	1113.723511	4.238423
287.306824	982.950684	4027.132813	1113.500488	4.288502
287.678223	970.319275	3951.121826	1110.231323	4.693771
288.049561	970.467834	3905.128174	1110.380005	4.767576
288.420898	959.248230	3879.494141	1114.392212	5.312703
288.792145	966.678467	3912.632813	1117.289917	5.112484
289.163452	963.260559	4010.340820	1130.441528	5.486596
289.534668	970.690735	4155.379395	1134.453979	5.142206
289.905914	970.839355	4269.434082	1138.317749	5.077265
290.277039	976.857910	4380.517090	1138.689087	4.754623
290.648193	977.749512	4434.832031	1138.540527	4.651061
291.019318	972.622559	4435.872559	1137.128784	4.750053
291.390381	971.508057	4373.086426	1124.348755	4.493229
291.761475	973.142761	4291.354004	1123.680054	4.536700
292.132507	974.480164	4249.447266	1127.246582	4.664670
292.503510	977.006531	4236.146484	1135.568481	4.865147
292.874481	972.771240	4280.579590	1141.512817	5.101311
293.245422	985.254089	4358.374512	1140.026733	4.588411
293.616364	985.328430	4495.017090	1145.079346	4.551712
293.987213	984.808289	4636.563965	1147.085571	4.443816
294.358093	977.303711	4781.529297	1147.977051	4.486415
294.728943	971.433777	4901.824707	1152.583862	4.608959
295.099731	973.811523	5032.672363	1156.967773	4.512504
295.470490	983.842346	5141.971191	1163.134766	4.311853
295.841248	992.312805	5262.193359	1166.181274	4.071975
296.211975	992.015625	5379.962891	1168.187378	4.014901
296.582642	980.647278	5501.968262	1182.007690	4.453575
296.953308	974.405945	5553.014160	1188.026123	4.665614
297.323883	969.724792	5538.302246	1177.549438	4.549001
297.694519	975.223145	5427.739746	1162.688965	4.210334
298.065063	974.703125	5306.774902	1147.308228	3.984355
298.435608	983.322266	5130.156738	1147.159668	3.950903
298.806122	977.898132	4940.016113	1142.924438	4.165103
299.176575	978.715393	4739.770996	1139.506470	4.275158
299.547028	970.839355	4614.124512	1134.676880	4.496972
299.917450	969.650574	4554.459473	1133.339355	4.566179
300.287872	976.189148	4560.106934	1134.528320	4.418047
300.658234	977.006409	4548.589844	1133.562378	4.383377
301.028564	981.464661	4541.605469	1141.735718	4.501818
301.398865	977.006531	4489.296387	1140.844116	4.664694
301.769135	978.343994	4446.274902	1143.073120	4.750070
302.139374	972.251160	4400.281250	1135.122681	4.751170
302.509583	971.136658	4376.132813	1127.692505	4.597827
302.879791	975.074646	4318.919922	1120.113525	4.337488
303.249939	973.365662	4257.396973	1110.677124	4.181186
303.620087	971.507996	4186.363770	1114.615112	4.451432
303.990173	973.662842	4170.908691	1124.497437	4.717641
304.360260	981.316101	4175.887207	1128.361206	4.602969
304.730286	977.675232	4167.937012	1126.577759	4.667408
305.100281	972.176819	4154.265137	1118.553101	4.600007
305.470276	972.251038	4153.521973	1117.661499	4.570829
305.840179	972.548340	4181.979980	1120.039185	4.595544
306.210144	974.108704	4228.122559	1126.652222	4.687857
306.579987	970.765076	4262.004395	1133.339355	4.939607
306.949890	980.647278	4321.223145	1138.169067	4.715408
307.319702	980.127136	4391.662598	1138.094727	4.630396
307.689484	984.288086	4503.785645	1140.026611	4.425022
308.059265	977.600830	4619.623047	1144.930542	4.594418
308.429016	975.669006	4733.603027	1144.856323	4.502136
308.798737	974.405823	4803.150879	1142.850220	4.399467
309.168396	978.269592	4843.868652	1141.512695	4.222970
309.538055	982.207703	4866.456543	1149.165894	4.298339
309.907684	982.430603	4867.719727	1145.153442	4.188179
310.277313	979.532776	4884.140625	1144.261841	4.218838
310.646851	977.823914	4860.363770	1136.311401	4.082057
311.016388	977.675293	4862.593262	1143.370239	4.265082
311.385895	981.687561	4804.117188	1147.085449	4.327035
311.755371	977.898132	4762.729980	1147.679810	4.485845
312.124817	976.560730	4695.708984	1138.391968	4.351298
312.494232	976.114929	4626.236328	1131.853394	4.266665
312.863617	979.235657	4609.146484	1137.203247	4.351831
313.232971	977.303711	4625.047363	1146.342407	4.634062
313.602295	978.195313	4715.622070	1148.645752	4.560636
313.971619	985.476990	4784.277832	1147.754150	4.271800
314.340820	985.922852	4829.603027	1144.633423	4.129130
314.710083	980.275818	4819.869141	1148.422852	4.379293
315.079285	973.960022	4747.126465	1146.490967	4.572577
315.448486	976.634949	4665.021973	1139.580933	4.417811
315.817596	984.362366	4544.279785	1127.840942	4.030391
316.186707	988.671936	4444.565918	1118.776001	3.764701
316.555786	988.226135	4334.746094	1121.896729	3.994316
316.924866	983.545105	4269.657715	1123.828491	4.268977
317.293884	972.845520	4267.056641	1120.410645	4.479528
317.662872	974.628845	4275.081543	1117.884399	4.340482
318.031830	971.136536	4332.442871	1115.060913	4.281799
318.400757	978.343933	4352.059082	1127.692383	4.426825
318.769684	968.015930	4399.761719	1131.110229	4.752517
319.138550	968.090149	4392.405273	1127.098022	4.643494
319.507416	968.907471	4370.188477	1117.587280	4.371289
319.876190	972.028137	4303.241699	1115.432495	4.304868
320.244995	973.885742	4228.939453	1120.410767	4.501462
320.613770	980.572998	4190.970215	1122.342651	4.415954
320.982483	980.275696	4206.425293	1125.091797	4.488822
321.351166	984.362488	4251.081543	1127.320923	4.376208
321.719818	970.839355	4306.288574	1132.819214	4.856313
322.088440	969.353333	4420.640625	1131.927612	4.710540
322.457062	968.238770	4586.707031	1134.602417	4.597626
322.825623	970.913635	4768.525879	1131.927612	4.239874
323.194183	966.678406	4897.367188	1138.912109	4.381769
323.562653	963.854980	4969.737793	1142.255737	4.453469
323.931183	964.746582	4990.616699	1145.153564	4.481192
324.299591	970.467773	4958.592285	1146.713867	4.419272
324.668060	970.244934	4902.345215	1145.822388	4.465233
325.036407	970.616455	4827.001953	1142.924438	4.468122
325.404755	980.275818	4755.151367	1135.122681	4.102039
325.773102	977.452332	4688.056152	1127.246582	4.036924
326.141388	972.919861	4599.338379	1125.091797	4.196205
326.509674	967.867249	4493.753906	1127.246582	4.520262
326.877899	979.978577	4401.841309	1127.989746	4.325456
327.246124	983.693787	4342.102051	1123.977295	4.177083
327.614288	987.483154	4305.173828	1124.200073	4.120846
327.982422	975.891907	4306.362793	1120.039185	4.328135
328.350525	976.412109	4326.275879	1122.119751	4.349658
328.718628	971.062256	4389.358887	1119.444824	4.340834
329.086700	977.452332	4430.819824	1123.680054	4.234352
329.454712	977.006409	4476.293457	1119.890625	4.083238
329.822693	975.668945	4505.494141	1124.423096	4.214207
330.190674	971.656677	4544.800293	1132.224976	4.493754
330.558563	981.316101	4600.229980	1141.364136	4.422544
330.926483	979.607117	4677.059082	1139.878052	4.334632
331.294312	985.625549	4768.748535	1142.478638	4.146127
331.662231	983.545105	4882.580078	1150.726318	4.287759
332.029999	988.597656	4976.424805	1155.035767	4.173654
332.397766	981.018799	5057.414551	1161.128540	4.418357
332.765503	980.721619	5101.773438	1164.472290	4.458829
333.133240	982.430603	5137.290527	1161.946045	4.320614
333.500916	984.213867	5136.175293	1156.521851	4.150038
333.868561	982.727844	5124.212891	1149.983276	4.038538
334.236176	978.938293	5090.107910	1158.007935	4.355686
334.603790	981.836182	5076.956543	1158.602295	4.316506
334.971344	978.046692	5031.780273	1162.317383	4.545703
335.338867	980.498718	4993.588867	1154.887085	4.345489
335.706360	978.789734	4964.982422	1148.422852	4.255517
336.073853	979.681335	4981.477539	1145.153442	4.134946
336.441284	985.031250	5023.532715	1148.422852	4.045847
336.808655	984.734070	5055.705566	1153.995483	4.157765
337.176086	986.665833	5119.383301	1157.265015	4.128015
337.543396	979.235535	5135.357910	1154.441406	4.215609
337.910706	976.932129	5169.537598	1154.069824	4.225003
338.277954	975.223206	5147.543457	1151.097778	4.215270
338.645264	977.452332	5124.361328	1155.927368	4.303809
339.012421	982.207703	5049.835938	1151.915039	4.172145
339.379669	983.396484	4949.750488	1146.862427	4.121315
339.746796	983.842285	4851.150879	1140.398193	4.048188
340.113953	979.235535	4796.018066	1133.116577	4.031695
340.481018	978.715515	4781.826172	1135.345581	4.118473
340.848114	974.925964	4805.008301	1131.704712	4.093352
341.215118	975.223206	4854.939941	1133.710938	4.085033
341.582153	972.399719	4973.749512	1142.701538	4.256109
341.949066	972.325378	5146.132324	1150.874878	4.277857
342.316010	971.879639	5388.210449	1179.555542	4.702453
342.682922	975.966248	5639.725098	1183.790894	4.456162
343.049835	972.622620	5949.790527	1199.988892	4.568186
343.416656	975.446106	6243.954590	1198.874390	4.240826
343.783478	973.439941	6487.072754	1214.849487	4.378412
344.150269	974.925964	6637.982422	1217.747192	4.287812
344.516998	974.703125	6655.740723	1219.159058	4.303016
344.883728	977.972412	6579.505859	1210.168457	4.145223
345.250427	980.795898	6442.268066	1204.150024	4.089632
345.617065	977.898132	6287.718750	1195.233521	4.093083
345.983704	972.994141	6135.770996	1188.323364	4.170803
346.350281	976.932190	6004.403809	1188.174683	4.201764
346.716827	979.161316	5861.667969	1182.304810	4.160639
347.083405	977.229492	5765.074219	1176.806396	4.168408
347.449860	979.309875	5685.941406	1176.583496	4.191397
347.816376	981.687561	5673.830078	1184.013794	4.312022
348.182770	990.678162	5679.923340	1193.153076	4.317857
348.549194	983.842285	5718.040527	1185.945679	4.269010
348.915558	979.978577	5791.525391	1182.825073	4.215827
349.281921	975.000305	5888.490723	1180.670288	4.185822
349.648193	971.582336	5948.527344	1180.224487	4.192173
350.014526	975.223145	5981.369141	1180.373047	4.097961
350.380737	977.155090	5997.195313	1183.493652	4.110297
350.746948	984.585266	6033.455078	1194.193359	4.151585
351.113159	982.281921	6082.197754	1206.379028	4.394133
351.479309	979.384094	6148.476074	1209.425415	4.450324
351.845428	973.960022	6269.736816	1212.248901	4.499602
352.211517	975.446106	6397.092285	1214.032227	4.400621
352.577576	973.588562	6552.757324	1211.357300	4.261723
352.943604	978.938293	6690.588379	1211.580200	4.073112
353.309601	979.607117	6859.998535	1217.747314	4.049734
353.675537	982.727844	7004.145996	1227.555298	4.065944
354.041473	978.641113	7154.906250	1241.672729	4.258749
354.407379	980.127258	7248.007324	1248.434326	4.280667
354.773254	975.074707	7394.012207	1260.471313	4.446166
355.139038	979.532776	7526.716797	1264.260742	4.348862
355.504913	975.594727	7806.095215	1264.260742	4.226133
355.870636	981.761780	8082.798340	1274.514526	4.122676
356.236389	978.938293	8417.161133	1286.774414	4.138571
356.602081	975.743347	8690.149414	1304.755737	4.264909
356.967804	975.891907	8881.702148	1313.300537	4.267857
357.333405	975.891907	8974.431641	1313.969238	4.226738
357.699036	978.938293	8982.009766	1313.300659	4.177926
358.064606	973.514221	8928.511719	1304.904297	4.165810
358.430176	975.520447	8851.534180	1303.789917	4.167965
358.795654	972.176758	8866.098633	1304.012695	4.203689
359.161163	974.108643	9046.059570	1315.306763	4.226960
359.526581	977.972412	9417.052734	1337.226074	4.257024
359.892029	977.675232	9960.354492	1360.037109	4.256657
360.257416	979.458496	10560.051758	1380.544556	4.186443
360.622772	968.090149	11085.223633	1399.863281	4.267742
360.988098	968.833191	11373.741211	1415.912598	4.296813
361.353394	969.130371	11472.266602	1432.482056	4.411555
361.718658	977.229492	11304.788086	1415.838257	4.246974
362.083893	983.916687	10906.375977	1393.473145	4.127570
362.449097	980.944519	10282.456055	1355.281616	4.024476
362.814209	977.898132	9626.734375	1336.780151	4.149484
363.179382	983.024963	9000.065430	1317.015747	4.166011
363.544434	984.362366	8559.599609	1301.635132	4.188288
363.909546	986.145691	8249.385742	1280.830200	4.057205
364.274536	978.343933	8095.207031	1274.588867	4.162577
364.639587	969.501892	7952.025879	1263.814941	4.214995
365.004517	964.077820	7853.500488	1262.328979	4.329117
365.369507	963.632019	7777.711426	1249.697388	4.198151
365.734344	976.932190	7762.777344	1249.103027	4.010861
366.099274	988.820618	7762.702637	1253.635620	3.909354
366.464081	992.238525	7738.703125	1257.202026	3.927442
366.828918	987.631775	7698.281250	1255.418823	3.990479
367.193665	979.086914	7606.518066	1251.332153	4.107855
367.558411	971.582336	7531.546875	1252.446655	4.281492
367.923126	970.764954	7431.312500	1251.629395	4.347378
368.287781	970.913635	7399.436035	1247.691284	4.305463
368.652435	972.251160	7346.755859	1241.301270	4.220722
369.017059	966.678406	7360.427246	1249.177368	4.418362
369.381653	965.563782	7389.256348	1255.195923	4.508811
369.746185	971.062256	7480.946777	1264.260864	4.503899
370.110687	975.000305	7574.048340	1265.821167	4.407012
370.475220	974.331543	7666.852051	1264.557983	4.336579
370.839661	965.712463	7717.898438	1264.409424	4.423707
371.204041	972.474060	7763.222656	1272.880005	4.423753
371.568451	974.554443	7759.655762	1273.920044	4.412102
371.932770	976.857849	7723.544922	1275.034668	4.419603
372.297150	972.548279	7677.849121	1260.619995	4.296179
372.661377	973.365540	7689.886719	1261.734497	4.293427
373.025696	982.281982	7743.458496	1256.756226	4.059563
373.389862	992.535828	7805.649902	1263.369141	3.975176
373.754059	996.028015	7909.450684	1265.895386	3.903528
374.118225	991.718323	8017.486816	1273.771606	4.014554
374.482361	980.795898	8179.169434	1277.932495	4.127830
374.846436	976.263367	8382.536133	1290.192383	4.238691
375.210510	978.046692	8691.634766	1296.656738	4.130504
375.574524	980.350098	9024.584961	1312.631836	4.130682
375.938538	978.046692	9329.078125	1326.600708	4.173784
376.302460	977.898132	9582.375977	1346.439575	4.283135
376.666412	968.313049	9752.158203	1355.058716	4.402920
377.030304	972.028137	9788.121094	1346.291016	4.245224
377.394196	966.529724	9666.709961	1340.495483	4.298368
377.757996	977.749451	9417.052734	1327.120972	4.139814
378.121796	978.046692	9087.296875	1324.520386	4.272574
378.485565	981.167419	8788.154297	1311.517334	4.231465
378.849304	975.520325	8563.090820	1308.693726	4.391042
379.212982	975.743347	8443.983398	1298.291382	4.318930
379.576630	977.600891	8360.170898	1294.056152	4.286519
379.940277	974.703125	8352.740234	1291.678589	4.296203
380.303864	970.765137	8349.694336	1289.300781	4.316827
380.667450	972.176941	8379.637695	1289.152222	4.279135
381.030945	976.783508	8383.501953	1276.892212	4.051845
381.394501	974.034363	8430.683594	1281.573364	4.124359
381.757935	970.319153	8492.875977	1284.619751	4.178109
382.121399	971.136536	8555.883789	1295.690918	4.279040
382.484741	977.972412	8687.473633	1304.161377	4.231000
382.848145	977.303650	8843.286133	1307.950806	4.203507
383.211487	978.641113	8978.072266	1313.820679	4.190042
383.574768	978.566895	9039.074219	1313.671997	4.157370
383.938019	975.594727	9064.560547	1321.028076	4.270427
384.301270	977.600891	9113.600586	1325.040405	4.270398
384.664459	976.040527	9149.265625	1333.065063	4.368221
385.027649	980.795898	9172.374023	1333.065063	4.300382
385.390778	977.377930	9284.868164	1337.151733	4.330716
385.753876	979.012634	9384.359375	1338.414917	4.275877
386.116943	982.059082	9489.274414	1338.191895	4.186244
386.479980	981.687561	9507.107422	1335.071167	4.145058
386.842987	976.040527	9558.301758	1338.340576	4.221498
387.205994	975.074646	9572.196289	1336.334351	4.202100
387.568909	976.709290	9542.030273	1327.938110	4.100591
387.931793	979.532715	9457.622070	1322.068359	4.040246
388.294678	974.405823	9414.749023	1321.994019	4.118176
388.657471	973.365662	9425.522461	1325.857666	4.170438
389.020294	976.412109	9490.909180	1325.486206	4.099762
389.383057	982.059082	9659.056641	1327.195190	3.977598
389.745819	979.755676	9849.197266	1342.427246	4.089001
390.108521	980.127197	10086.297852	1352.829712	4.092856
390.471191	970.690735	10379.125000	1367.244507	4.214875
390.833801	967.124207	10607.307617	1374.377441	4.224538
391.196442	962.963196	10790.985352	1376.309204	4.205790
391.558960	965.415222	10802.426758	1381.956421	4.234428
391.921509	968.907471	10796.408203	1385.522827	4.239281
392.284027	970.765076	10725.077148	1384.482544	4.241380
392.646484	974.108643	10678.639648	1383.962402	4.223324
393.008911	976.560547	10644.905273	1383.813843	4.212234
393.371307	976.412048	10679.901367	1394.959351	4.313369
393.733673	977.898132	10644.607422	1396.222534	4.327475
394.096008	977.452332	10574.094727	1395.553711	4.356746
394.458344	970.021973	10423.706055	1379.281372	4.329100
394.820587	964.895203	10214.246094	1362.637573	4.300220
395.182831	960.288391	9992.750977	1351.789429	4.334377
395.545013	968.758972	9766.276367	1349.114502	4.323442
395.907196	971.359558	9579.254883	1356.024658	4.468747
396.269287	982.579285	9469.213867	1350.303345	4.332979
396.631409	985.179871	9401.747070	1355.653198	4.401715
396.993469	992.238525	9388.967773	1345.919556	4.212129
397.355530	987.557434	9381.387695	1356.247681	4.392396
397.717499	985.848450	9416.532227	1357.733521	4.411090
398.079468	981.241699	9450.414063	1365.460938	4.536680
398.441376	975.891907	9448.928711	1365.163818	4.594243
398.803284	973.439941	9396.842773	1367.690063	4.680414
399.165131	980.275696	9384.062500	1374.749023	4.693995
399.526978	986.442871	9357.461914	1376.458008	4.659111
399.888763	982.727722	9371.132813	1382.699219	4.768147
400.250519	974.182922	9363.553711	1387.751953	4.929678
400.612244	974.554443	9404.569336	1395.627930	4.994932
400.973938	980.498718	9483.479492	1394.513306	4.869052
401.335602	976.857849	9557.484375	1400.086060	4.932369
401.697205	975.446106	9709.731445	1407.813599	4.950233
402.058807	977.526611	9878.546875	1430.401733	5.087901
402.420349	981.538879	10142.692383	1447.937134	5.091043
402.781860	983.396545	10380.759766	1465.844116	5.133861
403.143341	980.052917	10591.630859	1469.187622	5.089015
403.504822	980.201599	10793.139648	1482.190796	5.115585
403.866241	973.737122	10947.019531	1501.658081	5.293352
404.227631	967.124207	11054.758789	1522.016968	5.500722
404.588959	968.907532	11063.824219	1538.734985	5.644697
404.950287	969.576172	10999.551758	1536.654663	5.653837
405.311554	974.926025	10885.348633	1540.592773	5.707796
405.672821	979.012695	10765.275391	1526.029297	5.589637
406.034027	976.337708	10638.959961	1516.741577	5.592725
406.395203	982.950684	10463.160156	1511.763184	5.578068
406.756348	976.857849	10344.276367	1513.769165	5.731689
407.117493	979.681396	10298.208008	1518.673218	5.784089
407.478516	980.424377	10352.821289	1526.400757	5.825366
407.839600	980.350098	10421.327148	1539.626587	5.923926
408.200592	982.653503	10513.759766	1547.651367	5.927936
408.561554	981.687561	10631.901367	1557.162109	5.963335
408.922485	977.972473	10762.004883	1580.270142	6.155925
409.283417	983.025085	10885.273438	1593.050293	6.160472
409.644257	978.938293	10995.315430	1614.449585	6.344722
410.005096	986.294373	11089.531250	1617.941772	6.251931
410.365906	980.870300	11080.616211	1625.743530	6.385044
410.726715	977.155090	11064.418945	1609.768188	6.271404
411.087433	971.879639	10975.848633	1606.647583	6.345161
411.448120	966.455505	10932.901367	1606.944946	6.426457
411.808807	969.947754	10869.447266	1608.579590	6.451152
412.169434	975.520447	10817.583984	1609.619751	6.442748
412.530029	982.430603	10874.425781	1617.941772	6.424500
412.890564	985.848450	10955.713867	1633.471069	6.495801
413.251099	979.012634	11119.996094	1640.901245	6.526868
413.611572	975.891846	11251.809570	1659.402466	6.651577
413.972076	973.439941	11429.765625	1680.727539	6.764207
414.332489	971.433838	11564.625000	1690.535522	6.788339
414.692871	966.901367	11779.359375	1700.269165	6.782619
415.053223	966.901306	11950.627930	1702.572632	6.697830
415.413574	968.907410	12231.416992	1721.594116	6.683117
415.773834	980.572937	12469.557617	1737.048950	6.584359
416.134094	981.538879	12760.526367	1759.265625	6.602662
416.494263	983.990906	13024.598633	1790.546997	6.698633
416.854462	980.275818	13390.687500	1826.806763	6.821135
417.214630	981.167480	13831.972656	1859.945679	6.838313
417.574738	975.297546	14253.120117	1880.824829	6.819848
417.934784	978.343933	14713.871094	1908.985474	6.775434
418.294861	980.424316	15248.627930	1950.892212	6.801612
418.654846	989.712219	15893.426758	1990.867188	6.717486
419.014832	993.501648	16530.498047	2020.885376	6.612500
419.374756	992.089905	17191.792969	2065.095459	6.623613
419.734680	994.616211	17896.033203	2119.410889	6.655031
420.094543	983.916687	18465.712891	2158.939697	6.721408
420.454376	982.653503	18820.507813	2183.459717	6.731786
420.814148	984.585388	18992.146484	2188.512451	6.685675
421.173920	987.408875	19128.271484	2208.128174	6.729113
421.533691	986.517273	19234.820313	2200.103760	6.650407
421.893341	977.006531	19256.812500	2201.961182	6.701135
422.253021	972.325439	19206.583984	2195.125244	6.706058
422.612640	979.978577	19145.134766	2203.150146	6.733615
422.972260	982.802063	19169.283203	2217.490234	6.789044
423.331757	991.346863	19271.302734	2218.679443	6.714089
423.691315	988.746277	19450.966797	2232.722656	6.737956
424.050781	986.591553	19451.708984	2217.564697	6.666479
424.410248	978.938293	19260.677734	2213.403564	6.752450
424.769653	968.164368	18940.951172	2184.499756	6.767651
425.128998	974.034363	18567.953125	2165.701416	6.773176
425.488373	978.566833	18093.455078	2137.986572	6.774334
425.847656	981.613281	17627.503906	2112.574951	6.794240
426.206940	976.634949	17193.798828	2092.364502	6.879930
426.566193	978.715393	16855.201172	2072.302734	6.888095
426.925385	975.520325	16460.726563	2045.925293	6.912436
427.284576	974.108704	16033.932617	2019.027710	6.938454
427.643677	975.223206	15664.424805	1992.873413	6.927880
428.002777	982.133301	15407.559570	1970.731079	6.853162
428.361847	981.836121	15180.492188	1954.755981	6.852197
428.720856	977.155090	14966.127930	1930.607788	6.815745
429.079865	974.182922	14835.726563	1917.678833	6.806571
429.438812	980.498718	14812.989258	1912.180542	6.735460
429.797760	979.607117	14804.742188	1930.458984	6.877704
430.156616	979.755676	14651.828125	1941.901733	7.037310
430.515503	977.303711	14540.374023	1939.301147	7.092771
430.874268	974.703125	14554.120117	1929.418579	7.030607
431.233093	980.572998	14684.817383	1937.517578	6.982834
431.591827	981.241699	14869.163086	1950.743530	6.980899
431.950562	984.288147	15008.109375	1966.644409	7.004911
432.309204	973.662903	15150.770508	1960.551636	6.961143
432.667877	972.622742	15312.527344	1964.712524	6.918385
433.026459	974.034363	15384.229492	1967.238892	6.892374
433.385010	978.269714	15449.764648	1981.059204	6.929412
433.743561	973.365540	15462.694336	1981.207886	6.955756
434.102051	970.839355	15497.838867	1979.870239	6.945900
434.460510	973.439880	15514.928711	1979.721680	6.920074
434.818939	978.195313	15485.355469	1978.458618	6.894963
435.177338	980.795898	15462.768555	1978.904297	6.892075
435.535675	974.480164	15440.031250	1972.217163	6.897332
435.894012	975.371826	15445.901367	1980.539063	6.946306
436.252289	976.263428	15622.147461	1992.056030	6.935687
436.610535	975.000305	15716.957031	2006.322144	6.995827
436.968719	971.582336	16034.601563	2024.303345	6.988778
437.326935	966.529785	16287.973633	2046.594116	7.049364
437.685028	970.987976	16621.148438	2059.151367	6.953049
438.043152	969.947754	16856.615234	2065.095703	6.893503
438.401215	971.136536	17150.257813	2075.126465	6.823547
438.759277	965.043701	17529.201172	2095.633789	6.825521
439.117249	970.616455	18002.804688	2133.528320	6.827731
439.475250	967.867188	18413.550781	2163.398193	6.852876
439.833130	974.331604	18821.994141	2202.110107	6.879212
440.191071	970.987976	19013.546875	2208.499756	6.858848
440.548889	980.573059	19125.373047	2211.174561	6.782117
440.906708	980.795898	19066.302734	2209.168457	6.792027
441.264496	979.830017	18880.693359	2201.738281	6.825974
441.622223	969.650452	18652.062500	2180.561768	6.848112
441.979950	972.622559	18343.855469	2151.361084	6.785578
442.337616	971.953796	18092.935547	2131.745117	6.774093
442.695251	973.216980	17802.560547	2121.342773	6.822166
443.052887	972.399658	17703.218750	2120.302490	6.861008
443.410461	968.758789	17794.685547	2132.859619	6.918495
443.768005	973.068359	18012.912109	2149.800781	6.905770
444.125458	966.604065	18250.308594	2162.283447	6.917958
444.482941	970.616455	18595.964844	2178.258545	6.851735
444.840393	971.508118	19134.734375	2207.162354	6.803055
445.197754	979.086914	19659.906250	2241.415771	6.757352
445.555084	981.761902	20065.080078	2271.731445	6.759671
445.912415	981.093079	20300.767578	2288.598145	6.767739
446.269714	982.727783	20446.101563	2308.362549	6.810920
446.626953	984.436768	20473.816406	2313.415283	6.818988
446.984161	983.916687	20321.720703	2301.898193	6.815569
447.341309	978.120911	20065.748047	2283.545654	6.839115
447.698456	976.783508	19736.511719	2252.115234	6.798242
448.055542	977.080811	19497.554688	2241.638672	6.827891
448.412598	978.492493	19171.142578	2216.449951	6.804712
448.769653	977.155090	18820.138672	2195.199707	6.826463
449.126617	979.978516	18346.158203	2156.933838	6.777284
449.483582	980.424316	18040.550781	2140.141357	6.797822
449.840515	975.743347	17708.937500	2125.503906	6.871136
450.197388	966.901367	17516.419922	2124.314697	6.993637
450.554230	964.895203	17346.712891	2112.872314	7.007629
450.911041	964.003601	17357.859375	2104.624756	6.957613
451.267822	974.331604	17439.220703	2106.259033	6.874796
451.624573	978.121094	17498.960938	2103.584473	6.812386
451.981262	985.328430	17432.681641	2104.698975	6.805779
452.337921	976.709290	17238.826172	2090.507080	6.849033
452.694580	972.102539	16942.208984	2063.237793	6.832361
453.051147	972.176758	16747.238281	2039.981079	6.768939
453.407715	979.309875	16399.054688	2011.523071	6.694100
453.764221	984.065247	16229.496094	2008.848267	6.721902
454.120728	981.018799	15866.082031	1990.198364	6.779814
454.477142	970.616394	15809.835938	1993.170410	6.890888
454.833557	969.204651	15708.932617	1982.991089	6.877918
455.189911	969.799133	15721.786133	1979.424438	6.843995
455.546265	973.885742	15778.108398	1983.139648	6.817338
455.902557	970.987976	15819.569336	1987.374878	6.845010
456.258820	969.724792	16054.215820	2013.900879	6.922183
456.615051	970.839355	16323.637695	2024.451782	6.862673
456.971252	972.325378	16655.994141	2044.885132	6.838705
457.327393	971.508057	17207.025391	2080.327393	6.829590
457.683502	966.752625	17880.800781	2131.299316	6.885085
458.039612	963.780579	18830.166016	2190.369873	6.865347
458.395630	965.935364	19746.244141	2246.840088	6.820467
458.751648	975.966309	20564.912109	2301.972656	6.769156
459.107605	978.418274	21294.492188	2355.247559	6.777044
459.463562	977.675293	21558.562500	2377.166748	6.799957
459.819458	973.885742	21501.794922	2367.135986	6.787102
460.175323	969.947754	20947.421875	2322.925781	6.772518
460.531158	975.000305	20226.984375	2269.650879	6.724765
460.886932	978.046692	19414.039063	2224.549072	6.761244
461.242676	979.681396	18668.187500	2178.481445	6.777283
461.598419	970.542175	18128.304688	2143.856445	6.838387
461.954102	972.919739	17609.671875	2114.581055	6.862285
462.309723	973.662903	17175.150391	2101.281006	6.959967
462.665344	980.572998	16822.285156	2087.460693	6.987172
463.020905	976.709229	16612.304688	2063.683838	6.951923
463.376373	982.579102	16548.478516	2054.024414	6.883286
463.731873	980.647278	16519.871094	2047.931641	6.868325
464.087341	979.978577	16567.425781	2047.188843	6.846600
464.442749	978.566833	16722.792969	2048.154541	6.793523
464.798126	977.749451	16864.861328	2054.470215	6.777322
465.153503	974.182922	17049.726563	2060.860107	6.759816
465.508820	971.582336	17180.869141	2065.912842	6.751256
465.864105	977.675110	17298.789063	2083.076660	6.772832
466.219330	978.418152	17523.406250	2104.401611	6.805586
466.574524	972.771179	17600.830078	2109.825928	6.838169
466.929657	971.433655	17503.193359	2086.345947	6.744063
467.284790	968.833191	17295.443359	2080.104736	6.806505
467.639893	974.331543	17064.212891	2067.918945	6.796740
467.994934	966.158203	16892.947266	2057.145020	6.850011
468.349945	971.656677	16652.947266	2031.882202	6.761086
468.704926	973.142761	16501.667969	2026.012207	6.780228
469.059875	979.978577	16367.254883	2018.210449	6.747341
469.414764	972.622620	16322.153320	2013.975098	6.784263
469.769653	971.508057	16274.749023	2013.529297	6.809154
470.124451	958.876648	16323.565430	2030.024536	6.971491
470.479248	970.170654	16376.989258	2037.231934	6.925903
470.834015	966.232666	16460.876953	2034.482788	6.894319
471.188721	980.870300	16687.427734	2038.197876	6.731759
471.543365	981.836121	16922.818359	2059.077148	6.757682
471.898010	986.220032	17147.880859	2079.584717	6.765175
472.252625	982.950684	17409.052734	2102.395264	6.815035
472.607178	977.823914	17646.968750	2112.426270	6.806602
472.961700	978.418274	17752.033203	2124.314697	6.831542
473.316193	979.532776	17782.498047	2125.726318	6.821377
473.670654	978.864014	17727.142578	2122.828613	6.830341
474.025055	977.823914	17837.408203	2120.970947	6.780398
474.379456	980.127258	17887.787109	2125.949463	6.776942
474.733795	973.588562	18051.845703	2137.912109	6.817578
475.088104	978.566895	18321.712891	2152.401123	6.768289
475.442383	972.473938	18659.568359	2175.806396	6.803450
475.796570	981.910461	18954.921875	2192.153076	6.733666
476.150787	977.898132	19326.955078	2231.459229	6.831747
476.504944	980.350098	19681.156250	2260.957275	6.847871
476.859070	980.870300	20070.056641	2291.050049	6.863466
477.213135	984.734070	20326.103516	2306.950928	6.836211
477.567200	987.111633	20610.980469	2316.387451	6.773771
477.921173	984.288269	20878.767578	2335.260254	6.790688
478.275146	976.040527	21112.968750	2336.300537	6.755053
478.629089	971.136536	21393.908203	2344.993896	6.727086
478.983002	970.690674	21856.218750	2367.507568	6.687966
479.336823	972.919739	22411.632813	2407.259521	6.690420
479.690643	973.960144	23107.107422	2472.199951	6.769213
480.044403	975.446106	23984.771484	2530.304932	6.757516
480.398163	971.805359	25203.630859	2609.660156	6.759106
480.751862	973.885742	26841.783203	2702.687256	6.683193
481.105499	974.108704	29027.398438	2844.977295	6.668982
481.459137	979.755676	32213.203125	3065.730469	6.678657
481.812744	977.972473	36461.609375	3360.340576	6.713991
482.166290	976.560608	41570.738281	3711.272217	6.736710
482.519806	971.582336	46727.792969	4073.497803	6.779223
482.873291	971.953918	51007.031250	4405.631348	6.862540
483.226715	975.446106	53771.917969	4655.659668	6.970567
483.580139	980.647278	54832.656250	4775.212891	7.046285
483.933502	975.223145	54350.656250	4713.541992	7.003819
484.286804	967.718567	52581.953125	4529.865723	6.901482
484.640106	969.056091	49880.750000	4274.933105	6.758868
484.993347	975.297546	46993.644531	4052.395752	6.686677
485.346558	980.498718	44678.222656	3888.187256	6.654096
485.699738	981.910461	43480.390625	3815.370361	6.667203
486.052887	988.300476	43494.433594	3830.825439	6.687329
486.405975	987.706055	44343.050781	3907.802979	6.735264
486.759064	995.953674	45378.457031	3981.065430	6.725875
487.112061	989.786621	45910.542969	4018.811279	6.743040
487.464996	985.477051	45674.550781	4002.910400	6.752060
487.817963	980.795898	44599.316406	3910.106445	6.715750
488.170868	981.539001	42848.894531	3791.445068	6.711449
488.523743	986.591553	40788.402344	3636.969482	6.658938
488.876587	982.207703	38793.675781	3512.661133	6.692291
489.229401	985.476990	37481.636719	3414.135742	6.654560
489.582153	992.758606	37083.074219	3393.033936	6.650746
489.934845	988.523438	37642.648438	3441.405029	6.691966
490.287537	979.904297	38869.832031	3521.131592	6.706867
490.640198	963.334778	40178.378906	3610.666016	6.750805
490.992798	965.043762	40943.101563	3660.895264	6.743328
491.345337	972.994141	40825.406250	3650.195557	6.717790
491.697876	983.322266	39632.328125	3574.332275	6.703949
492.050354	981.836182	37733.968750	3433.305908	6.670279
492.402832	977.898193	35161.906250	3278.087646	6.728847
492.755219	971.731018	32407.650391	3098.126221	6.764222
493.107605	973.811523	29855.500000	2942.536377	6.816516
493.459930	962.740295	27825.031250	2797.794678	6.831340
493.812225	964.226379	26456.375000	2695.479492	6.791319
494.164490	960.957092	25644.544922	2635.368896	6.783503
494.516724	971.879578	25301.861328	2604.161865	6.708933
494.868896	973.811462	25239.744141	2598.960693	6.697246
495.221039	973.216980	25402.763672	2598.663330	6.653608
495.573120	973.960022	25609.250000	2613.672607	6.655951
495.925201	972.994141	25860.392578	2628.904541	6.653610
496.277222	978.046692	26030.470703	2651.938477	6.681557
496.629211	975.817627	26042.955078	2663.306885	6.731879
496.981140	982.430603	25913.443359	2661.003662	6.732871
497.333069	979.235535	25686.150391	2648.149170	6.754844
497.684967	983.470764	25408.185547	2619.393799	6.697819
498.036804	978.492493	24992.908203	2585.140381	6.690348
498.388580	982.059082	24496.492188	2553.487305	6.682824
498.740326	979.532776	24000.521484	2521.537109	6.698255
499.092072	984.585449	23520.156250	2489.809814	6.679327
499.443756	978.418274	23088.607422	2450.578125	6.658287
499.795410	983.322266	22694.501953	2429.773193	6.662240
500.147003	973.514221	22418.837891	2408.894287	6.693208
500.498566	979.681396	22144.884766	2389.798584	6.662432
500.850098	971.359436	21985.060547	2379.173096	6.699504
501.201599	967.198486	21835.935547	2375.309326	6.747466
501.553009	963.557617	21757.769531	2380.510498	6.814170
501.904449	967.421387	21705.164063	2378.875732	6.806211
502.255859	974.034363	21716.679688	2379.618896	6.776303
502.607178	983.470764	21765.794922	2387.049072	6.753712
502.958405	984.585266	21846.634766	2388.906738	6.731465
503.309692	985.551270	21887.576172	2400.943604	6.771556
503.660919	979.086914	21958.087891	2394.628174	6.747420
504.012115	982.579163	21952.740234	2401.538086	6.766562
504.363251	987.631775	21948.654297	2390.541260	6.692944
504.714294	990.158020	21866.029297	2390.392822	6.707432
505.065369	985.476990	21775.156250	2385.266113	6.733096
505.416443	982.282043	21642.970703	2380.659180	6.768299
505.767395	977.155090	21624.468750	2370.257080	6.747134
506.118317	976.783508	21606.414063	2356.733887	6.689167
506.469238	972.696960	21768.318359	2362.603760	6.683651
506.820160	973.662842	21919.970703	2382.145264	6.724251
507.170929	969.799072	22189.318359	2400.869385	6.744122
507.521729	972.102356	22431.470703	2415.061279	6.724144
507.872498	980.127136	22663.296875	2430.441895	6.688665
508.223236	980.424316	22927.664063	2451.841064	6.704336
508.573883	988.746277	23165.953125	2470.565430	6.681721
508.924500	979.755676	23426.978516	2497.091553	6.759571
509.275116	988.672058	23531.968750	2507.791260	6.738673
509.625702	983.173645	23656.873047	2513.215088	6.748089
509.976196	982.504883	23781.849609	2504.373047	6.675053
510.326660	980.052917	24067.244141	2518.267578	6.662632
510.677124	971.656677	24280.568359	2540.409912	6.730272
511.027557	969.724792	24511.947266	2550.886963	6.716282
511.377869	966.455505	24600.740234	2545.760010	6.682260
511.728180	969.947754	24648.218750	2531.865479	6.596418
512.078430	976.486389	24609.583984	2532.236816	6.582931
512.428650	974.851746	24518.708984	2524.360596	6.581372
512.778931	976.560730	24390.240234	2519.531006	6.590037
513.129028	976.263489	24218.078125	2515.816162	6.624064
513.479126	968.535950	24056.546875	2523.840576	6.736417
513.829285	966.306885	23923.396484	2524.360840	6.786809
514.179382	961.700195	23815.062500	2506.379639	6.759090
514.529297	967.495789	23794.703125	2497.834717	6.704013
514.879272	970.765076	23930.007813	2507.345459	6.692644
515.229187	977.377930	24056.099609	2526.738281	6.713371
515.579163	980.721680	24470.412109	2553.190186	6.694292
515.928955	975.891907	24961.478516	2580.607910	6.690335
516.278748	973.217041	25655.462891	2618.205078	6.664661
516.628540	966.901184	26429.031250	2669.994141	6.688729
516.978333	968.684570	27288.490234	2724.977783	6.672896
517.327942	969.353333	28228.791016	2795.565430	6.699376
517.677612	972.919922	28994.037109	2850.772461	6.701562
518.027222	970.616455	29512.076172	2880.493408	6.691588
518.376831	971.656677	29670.710938	2877.892822	6.642156
518.726379	978.046692	29450.703125	2857.459717	6.600765
519.075867	985.551270	28925.529297	2825.583984	6.585662
519.425293	989.117859	28226.787109	2781.225342	6.579518
519.774658	985.477051	27467.859375	2727.058350	6.576377
520.124084	985.179749	26806.568359	2689.089600	6.598832
520.473389	981.687561	26294.025391	2664.569580	6.648466
520.822693	983.099304	25991.015625	2648.743408	6.660467
521.171997	983.173584	25816.626953	2631.876709	6.639041
521.521240	976.263428	25763.208984	2625.189209	6.652396
521.870361	974.703125	25821.015625	2631.430908	6.667902
522.219482	974.777344	26026.757813	2647.703125	6.677818
522.568604	981.093079	26327.087891	2659.145752	6.620584
522.917664	982.356201	26757.078125	2684.482910	6.603860
523.266724	978.195313	27387.609375	2723.714844	6.609459
523.615662	980.275818	28270.103516	2791.553467	6.637189
523.964600	972.399719	29366.515625	2870.759766	6.685752
524.313538	975.594727	30598.677734	2955.316406	6.683037
524.662354	965.935364	31942.812500	3059.785889	6.759398
525.011169	976.857849	33223.199219	3138.621094	6.703902
525.359985	977.303711	34507.222656	3215.227539	6.674409
525.708740	980.498718	35805.218750	3295.028564	6.646227
526.057434	972.696838	37473.242188	3410.420654	6.678596
526.406067	972.325378	39643.402344	3560.140625	6.691862
526.754700	972.622620	42583.042969	3748.423828	6.670928
527.103333	971.953796	45819.667969	3984.186279	6.716579
527.451782	966.381104	49156.597656	4246.548828	6.806709
527.800293	972.102539	51705.328125	4463.438965	6.881755
528.148743	979.830017	53254.613281	4577.493652	6.882216
528.497131	976.263489	53293.031250	4567.091309	6.863627
528.845642	971.210938	52092.300781	4446.869141	6.798873
529.193909	968.610291	49708.667969	4247.589355	6.727483
529.542175	984.585266	46472.261719	4014.576172	6.661125
529.890503	984.139465	42943.035156	3769.376953	6.638015
530.238770	982.802063	39747.718750	3561.032227	6.650937
530.586914	974.851746	37495.378906	3389.318604	6.611259
530.934998	978.715515	36191.074219	3299.858398	6.591841
531.283142	982.281982	36082.738281	3289.827393	6.574118
531.631226	978.715515	36732.070313	3346.446045	6.622401
531.979248	981.761902	37994.695313	3432.191406	6.620468
532.327148	981.390381	39188.667969	3510.506104	6.619461
532.675110	985.328430	40003.765625	3575.223877	6.637620
533.023071	983.916687	40092.562500	3585.849365	6.653088
533.370850	977.675293	39425.250000	3550.184326	6.690953
533.718689	980.350098	38225.261719	3463.770264	6.667811
534.066467	975.891907	36689.941406	3351.647217	6.652159
534.414246	976.783508	35145.781250	3250.372314	6.653953
534.761963	972.251160	33922.535156	3162.100830	6.645920
535.109619	975.223145	33250.839844	3121.828857	6.650859
535.457153	979.161194	32995.386719	3098.275146	6.618876
535.804749	984.733948	32971.015625	3101.618408	6.618102
536.152344	990.306641	32837.566406	3092.924805	6.602195
536.499817	992.832947	32482.177734	3068.628174	6.592056
536.847229	986.740051	31869.255859	3037.495361	6.640506
537.194641	974.925964	31033.718750	2986.300781	6.691469
537.542114	973.588562	30277.095703	2928.196045	6.670217
537.889404	979.607117	29571.890625	2860.060303	6.576786
538.236694	985.551270	29171.771484	2833.013916	6.554489
538.583984	979.978516	29251.273438	2843.342041	6.591009
538.931213	975.891907	29953.060547	2907.614014	6.666359
539.278381	980.350098	31446.990234	3001.607178	6.634329
539.625488	984.808105	33352.187500	3137.729492	6.651516
539.972595	988.820496	35880.933594	3295.697266	6.611456
540.319641	982.802063	38193.011719	3451.881592	6.635489
540.666687	982.207703	40177.636719	3584.586182	6.639494
541.013611	974.926025	41277.093750	3662.380859	6.668264
541.360596	971.656677	41560.261719	3683.780029	6.681982
541.707458	964.300598	40866.871094	3635.037842	6.693146
542.054260	965.935364	39411.058594	3540.821533	6.697562
542.401062	967.867249	37708.113281	3423.052002	6.682549
542.747864	975.297607	35858.195313	3295.697266	6.651969
543.094666	974.257324	33997.210938	3170.422607	6.650421
543.441284	973.885803	32137.265625	3041.507813	6.634781
543.787903	974.554504	30622.453125	2937.260986	6.620053
544.134460	977.823792	29352.546875	2863.106689	6.644234
544.481079	979.384094	28484.765625	2812.209717	6.663517
544.827637	978.343933	27901.568359	2777.287109	6.681752
545.174072	980.944519	27609.257813	2742.439209	6.615119
545.520508	986.665833	27510.880859	2731.516846	6.578332
545.866943	980.127197	27357.593750	2727.504395	6.624507
546.213318	976.114807	27233.656250	2738.798096	6.713056
546.559631	965.786804	26797.724609	2725.869385	6.813591
546.905823	973.439941	26301.304688	2695.256592	6.798112
547.252136	978.120911	25579.009766	2630.167725	6.715395
547.598389	985.774170	24798.236328	2566.861572	6.639748
547.944458	980.870178	23913.291016	2508.385498	6.660943
548.290588	976.560730	22939.630859	2442.181885	6.673116
548.636658	972.622620	22020.132813	2388.981201	6.729341
548.982727	979.681396	21220.560547	2331.768066	6.679980
549.328735	982.281982	20708.169922	2303.755859	6.699185
549.674622	990.158020	20311.318359	2272.400146	6.636466
550.020569	989.340759	20080.978516	2263.558350	6.674218
550.366455	984.808289	19911.941406	2248.920654	6.678837
550.712280	980.350098	19907.333984	2245.205322	6.682814
551.058044	978.938416	19972.498047	2239.929932	6.639047
551.403748	985.031250	20062.330078	2241.787354	6.587705
551.749512	986.294373	20202.759766	2254.344482	6.598769
552.095154	981.241699	20357.755859	2267.347412	6.637446
552.440735	979.161316	20462.373047	2280.647705	6.680040
552.786316	977.898132	20401.000000	2278.641602	6.696888
553.131897	980.498718	20204.619141	2253.378662	6.621264
553.477417	975.817688	19907.927734	2225.738037	6.602119
553.822815	976.412109	19587.535156	2206.344971	6.608590
554.168213	976.040527	19247.822266	2194.382324	6.667887
554.513672	981.984680	18917.695313	2173.428955	6.642861
554.859009	976.932129	18615.804688	2147.497314	6.636281
555.204285	977.972473	18362.876953	2139.918213	6.683648
555.549500	974.926086	18168.279297	2140.958740	6.781881
555.894714	978.566895	18039.289063	2145.788330	6.841571
556.239990	976.114807	17933.927734	2136.946045	6.845407
556.585022	977.006531	17858.658203	2125.429443	6.802787
556.930115	974.183044	17734.572266	2108.042236	6.765112
557.275146	975.594727	17576.755859	2089.318115	6.708708
557.620178	972.994141	17434.167969	2079.956055	6.724684
557.965149	972.919739	17319.666016	2068.662109	6.703123
558.310059	973.142761	17254.503906	2066.061523	6.712698
558.654968	976.486389	17206.951172	2070.371094	6.739701
558.999756	977.972412	17218.095703	2076.835449	6.766347
559.344604	973.588562	17278.207031	2078.247070	6.775126
559.689331	970.096375	17329.548828	2065.169922	6.693827
560.033997	967.867249	17347.976563	2075.869385	6.764315
560.378723	967.644348	17389.660156	2085.380127	6.806325
560.723389	961.848694	17451.927734	2099.497803	6.898992
561.067932	960.139832	17546.587891	2095.708252	6.846363
561.412476	964.300781	17541.833984	2087.163330	6.773399
561.757019	972.028259	17514.564453	2076.018066	6.673642
562.101501	977.749512	17423.320313	2065.467041	6.614046
562.445862	979.309875	17331.333984	2060.711670	6.613260
562.790222	978.121033	17236.003906	2058.705566	6.646526
563.134644	979.755676	17227.533203	2068.067627	6.698221
563.478943	982.950745	17311.568359	2070.445557	6.660055
563.823181	989.860840	17475.630859	2081.813721	6.623609
564.167358	984.956848	17699.429688	2085.157227	6.582322
564.511536	979.458496	17997.531250	2114.803711	6.671409
564.855774	971.582336	18327.955078	2137.837646	6.719465
565.199768	969.724792	18673.017578	2170.902588	6.785053
565.543823	971.359436	18941.546875	2187.249023	6.766149
565.887817	977.006531	19197.966797	2207.311035	6.752138
566.231812	981.687561	19217.804688	2205.453369	6.710671
566.575745	981.390381	19116.603516	2207.162354	6.759071
566.919617	984.808289	18833.882813	2178.332764	6.686758
567.263428	979.978516	18567.060547	2154.778809	6.679904
567.607239	975.223206	18358.865234	2128.550049	6.634552
567.950989	968.758850	18179.498047	2118.593506	6.680914
568.294678	974.034363	18069.603516	2107.002197	6.627260
568.638367	977.452332	17975.984375	2101.578125	6.613076
568.981995	976.337830	17936.751953	2109.751709	6.682701
569.325623	968.535950	17998.943359	2122.308350	6.774779
569.669128	970.839355	18080.750000	2120.079346	6.716809
570.012573	972.771240	18240.945313	2126.097900	6.678915
570.356140	970.913757	18425.291016	2144.673828	6.724731
570.699524	969.055969	18705.710938	2173.577881	6.791145
571.042908	970.690735	19045.869141	2191.484375	6.753979
571.386230	974.331543	19290.250000	2196.685547	6.673725
571.729492	982.059082	19410.544922	2213.923828	6.684568
572.072815	980.573059	19395.091797	2222.765869	6.745725
572.416016	984.065247	19299.759766	2233.317139	6.820663
572.759094	980.647278	19174.263672	2211.249023	6.763920
573.102234	977.675110	19002.474609	2199.434814	6.778216
573.445374	973.439941	18839.529297	2178.035889	6.742359
573.788391	974.183044	18686.986328	2170.605469	6.754563
574.131409	978.046692	18587.865234	2148.908936	6.648918
574.474365	985.476990	18509.921875	2137.243408	6.572341
574.817261	981.018738	18416.152344	2131.596436	6.599191
575.160156	980.127136	18216.052734	2130.927734	6.676755
575.502930	974.480164	17985.937500	2114.581055	6.701959
575.845703	973.737122	17702.027344	2096.154053	6.709693
576.188477	976.709167	17400.582031	2074.457764	6.683859
576.531250	974.925964	17062.728516	2055.138916	6.714484
576.873901	984.288086	16710.830078	2029.652954	6.647138
577.216431	977.377991	16376.617188	2013.306641	6.727142
577.559082	982.504883	16021.820313	1983.659668	6.656917
577.901611	972.102478	15707.965820	1966.718750	6.749630
578.244080	977.823792	15421.976563	1939.449585	6.657544
578.586487	971.508118	15197.135742	1931.944946	6.751455
578.928955	981.093201	14992.653320	1921.171265	6.709303
579.271301	982.950684	14800.730469	1903.932983	6.665198
579.613647	985.551270	14611.926758	1895.685181	6.679208
579.955872	978.121094	14470.901367	1884.094116	6.714502
580.298157	973.068420	14365.836914	1884.985718	6.809028
580.640320	981.167480	14314.122070	1878.595703	6.730903
580.982483	977.749512	14262.778320	1863.809204	6.669611
581.324524	980.127197	14233.578125	1858.162476	6.624956
581.666626	970.690735	14156.004883	1851.995483	6.683987
582.008728	972.473938	14062.682617	1850.286499	6.705871
582.350647	971.285156	13954.645508	1852.292480	6.785665
582.692566	973.960022	13850.769531	1846.645508	6.777187
583.034424	978.789734	13794.448242	1847.611328	6.779376
583.376343	977.006531	13686.709961	1831.116211	6.720139
583.718201	976.263428	13648.073242	1823.760254	6.688049
584.059937	976.337708	13498.054688	1816.330078	6.708284
584.401611	982.579102	13443.739258	1810.831665	6.646673
584.743347	988.969177	13418.179688	1806.150513	6.574684
585.085022	992.684326	13427.467773	1797.308594	6.470754
585.426514	988.077454	13429.101563	1796.862671	6.500954
585.768127	988.449036	13433.411133	1798.274414	6.507255
586.109619	980.275818	13484.012695	1809.642944	6.632954
586.451172	984.065247	13523.764648	1804.218750	6.540456
586.792542	984.065247	13524.209961	1814.398071	6.621397
587.133850	991.569824	13569.979492	1814.323853	6.541002
587.475220	986.071472	13617.756836	1825.766602	6.647531
587.816589	981.910461	13671.032227	1829.481567	6.679510
588.157776	973.217041	13714.796875	1836.540405	6.775638
588.498962	969.056152	13780.406250	1857.642456	6.935930
588.840210	966.975586	13872.838867	1859.054077	6.912195
589.181335	967.867249	13930.348633	1869.753784	6.957669
589.522400	972.919861	13977.976563	1865.890015	6.866330
589.863403	970.765076	13957.838867	1865.666992	6.890712
590.204407	977.006531	13884.354492	1857.642212	6.822747
590.545410	975.371765	13773.643555	1841.741577	6.769428
590.886353	973.068420	13626.003906	1836.837524	6.826630
591.227112	964.895081	13543.528320	1825.618042	6.842739
591.567932	962.220215	13456.817383	1824.057617	6.897680
591.908752	958.802307	13473.164063	1816.404297	6.852942
592.249512	962.294495	13503.479492	1817.295898	6.817549
592.590149	966.604065	13503.331055	1817.667358	6.788561
592.930786	971.507996	13514.104492	1821.605469	6.777683
593.271423	973.291321	13575.479492	1828.218628	6.783959
593.612000	980.572998	13720.815430	1835.425781	6.709863
593.952576	982.727783	13892.528320	1841.964478	6.655693
594.292969	976.857849	14013.938477	1855.116089	6.736617
594.633484	968.164490	14205.268555	1872.725708	6.833528
594.973877	968.684570	14440.289063	1888.700806	6.829299
595.314209	980.052917	14731.480469	1913.740845	6.789752
595.654480	984.213867	15067.700195	1934.396973	6.746789
595.994812	987.631775	15410.831055	1961.146118	6.749642
596.335022	981.761902	15701.280273	1967.907715	6.699579
596.675171	978.566895	15807.754883	1973.405884	6.708655
597.015320	976.709290	15730.851563	1961.814819	6.676806
597.355408	979.235596	15457.046875	1940.712891	6.641040
597.695496	981.984680	15078.250977	1918.050415	6.640522
598.035461	979.458496	14543.643555	1892.341797	6.730100
598.375366	981.390320	14027.684570	1858.088257	6.719900
598.715271	974.108643	13583.206055	1824.949219	6.747831
599.055176	979.606934	13225.140625	1803.624390	6.729127
599.395081	972.028137	13000.004883	1794.782227	6.840337
599.734802	980.424316	12767.065430	1782.819702	6.807668
600.074524	983.396484	12677.381836	1775.909546	6.777100
600.414246	991.346863	12633.394531	1769.890747	6.687345
600.753906	991.569824	12666.756836	1765.061157	6.625087
601.093506	987.260254	12749.157227	1763.203613	6.597094
601.433044	977.823914	12896.127930	1768.330566	6.632711
601.772583	977.972412	13103.209961	1788.317993	6.683132
602.112122	976.040527	13389.721680	1805.778931	6.684064
602.451538	973.737122	13710.411133	1832.379517	6.741496
602.790894	969.130371	14127.028320	1860.243042	6.772454
603.130310	967.124207	14535.247070	1888.700806	6.792219
603.469604	968.461731	14905.573242	1911.511719	6.766467
603.808838	962.740295	15247.067383	1923.028687	6.722672
604.148010	966.009705	15509.726563	1940.415527	6.699841
604.487305	973.216980	15617.167969	1949.777710	6.668697
604.826416	986.219971	15545.764648	1950.520630	6.623151
605.165527	981.761780	15254.348633	1940.935547	6.720392
605.504456	975.223206	14921.770508	1923.846069	6.801847
605.843445	967.792969	14455.817383	1892.713257	6.857345
606.182434	972.622742	13994.620117	1853.555664	6.764960
606.521423	977.155090	13543.007813	1818.410522	6.694774
606.860229	971.359436	13218.083008	1803.921509	6.798244
607.199036	977.526550	13006.542969	1795.302368	6.798360
607.537903	975.074524	12954.828125	1787.500610	6.781659
607.876648	981.390320	12988.859375	1791.884399	6.749916
608.215271	977.526611	13153.512695	1801.098022	6.763899
608.553955	981.761902	13335.257813	1809.791382	6.702795
608.892578	986.145752	13532.976563	1821.382690	6.656955
609.231140	985.179871	13629.718750	1826.063843	6.650175
609.569641	985.699890	13653.346680	1838.472290	6.731893
609.908081	983.396484	13549.770508	1820.268066	6.659611
610.246521	982.876282	13351.827148	1814.844116	6.726260
610.584961	980.498718	13041.242188	1791.884399	6.727493
610.923340	981.093079	12699.597656	1790.175659	6.904316
611.261597	979.904297	12347.625000	1762.906372	6.887943
611.599854	977.972412	12070.476563	1752.132446	6.979128
611.938110	980.201477	11796.225586	1727.092407	6.905411
612.276245	981.538879	11594.046875	1714.089478	6.902709
612.614319	979.309875	11403.089844	1692.541626	6.842352
612.952393	977.229309	11224.614258	1671.885620	6.778864
613.290466	976.560730	11081.136719	1660.888672	6.772456
613.628479	985.997131	10899.763672	1661.334595	6.812118
613.966370	988.672058	10824.123047	1659.328247	6.818764
614.304260	983.842346	10722.774414	1645.656738	6.795554
614.642151	974.405945	10666.452148	1627.452515	6.737964
614.979980	964.375000	10605.821289	1631.762085	6.922064
615.317749	968.833191	10596.385742	1627.675415	6.843299
615.655396	971.805237	10583.753906	1621.582642	6.760101
615.993164	981.093079	10597.127930	1607.836548	6.517691
616.330811	979.755798	10575.506836	1612.814819	6.597285
616.668396	978.195313	10570.007813	1618.759155	6.678236
617.005859	977.080750	10561.983398	1619.576294	6.703204
617.343445	970.467834	10580.856445	1625.817871	6.819183
617.680908	969.501892	10603.816406	1619.947876	6.751347
618.018311	971.433777	10588.434570	1620.690918	6.751139
618.355652	972.771179	10587.915039	1619.353516	6.724625
618.692993	980.127136	10559.903320	1627.601074	6.758759
619.030273	982.504883	10528.472656	1632.059204	6.804489
619.367554	985.476990	10440.794922	1621.582520	6.727489
619.704712	979.235535	10392.275391	1615.043945	6.754549
620.041870	959.471008	10363.520508	1608.876831	6.905597
620.379028	962.368835	10346.133789	1617.570313	6.982288
620.716064	967.124207	10324.585938	1615.415405	6.928067
621.053040	975.446106	10285.502930	1621.582642	6.940200
621.389954	972.474060	10259.050781	1612.591919	6.892936
621.726929	965.935364	10238.098633	1611.031616	6.957344
622.063843	967.124268	10231.039063	1600.480469	6.836809
622.400635	970.319275	10249.020508	1603.452759	6.823514
622.737427	979.904297	10263.956055	1600.852051	6.688327
623.074219	981.464600	10264.475586	1605.310181	6.720294
623.410889	975.891907	10284.537109	1603.750000	6.744892
623.747559	964.746521	10359.954102	1607.093628	6.836965
624.084167	973.514221	10431.655273	1614.969727	6.782047
624.420715	976.857849	10521.116211	1626.189453	6.803374
624.757324	983.990906	10573.351563	1641.198608	6.853509
625.093750	981.687500	10729.609375	1647.959961	6.835021
625.430176	982.950684	10909.793945	1658.213867	6.802396
625.766602	981.910461	11087.229492	1666.907227	6.778576
626.102905	974.777405	11282.051758	1679.315796	6.835351
626.439209	975.966248	11399.078125	1682.956543	6.782910
626.775452	976.337708	11497.456055	1687.563354	6.759982
627.111694	983.247864	11462.531250	1679.464355	6.643742
627.447876	980.350098	11412.674805	1672.777222	6.637324
627.783997	977.377991	11298.545898	1660.145630	6.615217
628.120056	975.669128	11187.239258	1650.783569	6.611269
628.456055	976.412109	11000.590820	1645.730835	6.677043
628.792053	975.223206	10821.670898	1643.353149	6.785492
629.128052	974.182922	10633.983398	1633.173828	6.821993
629.463928	973.291321	10506.256836	1610.808594	6.687502
629.799744	969.873352	10402.530273	1598.028687	6.659368
630.135559	964.077820	10292.264648	1593.050415	6.742710
630.471375	965.192322	10178.061523	1593.050415	6.815012
630.807068	973.439941	10075.299805	1592.678833	6.803433
631.142700	986.591492	9988.217773	1588.889282	6.690989
631.478333	986.442871	9902.249023	1586.808960	6.733727
631.813965	984.511047	9866.956055	1573.954590	6.636050
632.149475	976.189148	9833.593750	1563.180664	6.627128
632.484924	982.281982	9845.483398	1559.316895	6.510457
632.820435	985.105469	9815.686523	1564.963867	6.566481
633.155884	989.192078	9844.515625	1576.852417	6.636238
633.491150	988.672058	9885.901367	1585.248535	6.705194
633.826477	988.523438	9901.133789	1583.762329	6.678615
634.161804	978.641113	9861.829102	1584.282593	6.817840
634.497009	974.777344	9760.925781	1581.830566	6.909207
634.832153	971.953857	9667.824219	1584.134155	7.039897
635.167297	968.610291	9548.716797	1568.233398	6.988528
635.502380	964.969421	9444.098633	1548.245728	6.878965
635.837463	960.957031	9327.889648	1533.311035	6.840667
636.172424	970.616394	9256.261719	1530.784668	6.760708
636.507324	970.319153	9194.887695	1536.728882	6.886802
636.842224	972.325439	9150.083008	1540.963989	6.953477
637.177124	972.548340	9071.842773	1539.552368	7.000659
637.511963	979.607117	9001.180664	1524.766113	6.796160
637.846741	988.597656	8883.484375	1519.193359	6.720751
638.181396	983.396484	8786.221680	1509.459839	6.741960
638.516113	979.829895	8699.881836	1514.883789	6.930704
638.850769	976.783508	8659.387695	1507.379272	6.906457
639.185303	975.520447	8615.401367	1505.521606	6.937296
639.519836	978.566895	8572.156250	1492.221680	6.764321
639.854370	971.953918	8500.379883	1482.933716	6.787339
640.188843	977.155090	8430.461914	1475.057617	6.680290
640.523254	968.833191	8354.895508	1470.525269	6.792416
640.857605	971.730957	8328.889648	1476.023560	6.854448
641.191895	971.953857	8284.381836	1472.680054	6.847605
641.526184	983.545105	8258.672852	1481.224731	6.840837
641.860413	978.715515	8204.432617	1477.138184	6.897899
642.194580	969.056152	8188.605469	1474.611816	7.002593
642.528748	957.316223	8149.373535	1462.574707	7.025229
642.862793	965.861084	8109.324707	1459.974121	6.916995
643.196838	975.743347	8058.575684	1462.277466	6.869203
643.530823	976.189209	8006.118652	1472.605591	7.061470
643.864746	976.263489	7996.458984	1462.351929	6.924144
644.198669	980.795898	7983.902344	1463.317749	6.890111
644.532532	979.086975	7965.995605	1452.023804	6.768899
644.866333	973.885803	7969.412598	1449.869141	6.804110
645.200073	968.535950	7982.489746	1448.457397	6.842381
645.533813	976.412109	8016.297363	1452.841187	6.767569
645.867554	978.195313	7993.263672	1452.915405	6.767148
646.201172	978.121033	8013.400391	1450.686401	6.717081
646.534729	977.377930	8029.672363	1444.816406	6.628176
646.868225	977.452332	8067.937988	1447.565796	6.630201
647.201782	973.365662	8068.532715	1451.949585	6.745210
647.535217	974.628723	8066.229004	1452.023804	6.731839
647.868591	984.362488	8046.019043	1448.903198	6.578353
648.201965	988.300476	8012.062500	1442.661621	6.468914
648.535278	988.672058	7981.895996	1440.358398	6.458914
648.868591	986.814453	7980.187012	1446.079712	6.567150
649.201782	982.802063	7965.846191	1451.652344	6.714125
649.534912	984.808289	7960.645020	1457.819458	6.780708
649.868103	978.418213	7943.555176	1453.138306	6.815661
650.201172	981.316101	7972.607422	1452.098022	6.733833
650.534180	973.811462	7978.031250	1447.937012	6.769142
650.867188	970.244934	7975.728516	1450.389160	6.853834
651.200134	972.919861	7964.657715	1450.389160	6.829051
651.533020	970.467834	7969.189453	1465.918457	7.079159
651.865845	974.034363	7926.837402	1472.308472	7.166521
652.198608	969.576172	7884.558594	1471.565430	7.259444
652.531433	980.127136	7829.425781	1459.379883	6.997107
652.864136	985.922668	7796.510254	1450.537720	6.821953
653.196777	1119.370483	7878.243652	1565.484009	6.600413
653.529358	1124.051636	7847.704590	1563.700806	6.538844
653.861938	1105.550171	7826.974121	1554.710083	6.682511
654.194519	969.056091	7638.245605	1421.856812	6.789442
654.526978	958.282227	7578.431641	1417.175903	6.931772
654.859375	969.056152	7515.200684	1421.559570	6.912518
655.191833	973.811462	7520.773438	1433.447876	7.020606
655.524170	977.155090	7540.166504	1439.912476	7.050992
655.856445	977.080811	7563.868652	1438.872192	7.010873
656.188660	979.607117	7581.775879	1438.426392	6.949523
656.520874	978.641113	7599.236816	1427.429565	6.778672
656.853088	972.102539	7677.849121	1433.448120	6.879854
657.185181	971.062256	7721.538574	1438.872192	6.930028
657.517212	965.861084	7817.314941	1454.475952	7.131550
657.849243	973.960022	7942.663574	1452.469727	6.866553
658.181274	977.377930	8158.513184	1459.454102	6.713091
658.513123	983.396484	8347.539063	1470.896606	6.619917
658.844971	984.659668	8537.084961	1489.249512	6.681163
659.176819	985.922852	8664.811523	1504.332886	6.751108
659.508667	979.384094	8738.296875	1511.020142	6.851940
659.840393	983.470764	8711.918945	1516.295532	6.894331
660.172058	984.808289	8605.370117	1501.063599	6.774504
660.503662	995.953613	8446.436523	1487.540405	6.598053
660.835266	988.597656	8276.431641	1480.110229	6.744289
661.166931	983.693665	8090.006348	1473.274292	6.889377
661.498413	971.062195	7933.896484	1463.837891	7.077229
661.829773	972.251160	7746.950684	1443.701782	6.958989
662.161194	968.833191	7585.937012	1431.070313	6.985490
662.492615	977.377930	7422.099121	1411.603027	6.737686
662.823975	972.176758	7309.753418	1401.646484	6.776561
663.155212	968.164368	7221.556152	1392.284302	6.782238
663.486450	964.375000	7147.252441	1394.141968	6.950922
663.817627	973.960022	7067.749512	1393.398804	6.883053
664.148743	986.888733	6987.650879	1391.095581	6.735925
664.479858	979.235535	6925.683105	1385.671387	6.834935
664.810913	980.647278	6882.958496	1378.018188	6.732463
665.141907	975.371765	6871.292480	1375.640503	6.788909
665.472778	982.653503	6846.400879	1379.207153	6.762802
665.803711	977.006409	6817.794434	1393.101685	7.123958
666.134583	974.331543	6779.974609	1395.405151	7.252833
666.465454	974.257263	6769.646484	1401.795288	7.377210
666.796143	968.833191	6774.550781	1392.433105	7.296254
667.126831	970.467773	6793.274902	1388.643555	7.181687
667.457458	974.331543	6792.234375	1371.331055	6.823756
667.788147	975.371826	6806.352051	1370.439331	6.775319
668.118774	976.932129	6822.698730	1378.092651	6.862411
668.449219	977.526611	6839.862793	1379.652954	6.859490
668.779663	981.761902	6849.744629	1382.104858	6.822497
669.110107	980.647278	6833.546875	1375.789185	6.751216
669.440552	977.898010	6811.033691	1377.201050	6.845427
669.770874	974.108582	6764.371094	1371.628296	6.865314
670.101135	971.507996	6702.700684	1374.377441	7.029417
670.431396	965.712402	6673.647949	1378.092651	7.224683
670.761597	961.774414	6632.187012	1375.343262	7.293452
671.091797	964.969421	6616.806152	1368.284546	7.136001
671.421875	974.480164	6564.050781	1361.820190	6.929692
671.751892	986.888733	6540.496582	1361.448853	6.744447
672.081909	983.693665	6508.695313	1362.711914	6.860057
672.411865	987.408875	6479.346191	1357.585083	6.740357
672.741821	977.823914	6428.150879	1351.269287	6.851798
673.071716	979.012695	6423.173340	1347.702759	6.772212
673.401550	968.164490	6403.557129	1347.702759	6.982720
673.731262	970.839417	6388.919434	1351.789429	7.031089
674.060974	969.130432	6348.869629	1343.838989	6.965181
674.390625	972.251160	6319.148438	1343.541870	6.944040
674.720276	976.932190	6294.480469	1333.733887	6.709891
675.049927	977.229309	6264.313965	1335.368530	6.773851
675.379395	972.028137	6260.970215	1337.523315	6.910554
675.708923	968.090088	6236.078613	1338.266235	7.026898
676.038330	966.604004	6226.642578	1343.690308	7.168889
676.367737	973.439880	6203.088379	1341.312622	7.034369
676.697083	971.730896	6203.831543	1337.077515	6.982790
677.026428	975.669006	6196.475098	1329.424316	6.775875
677.355652	973.365662	6227.088379	1328.829956	6.765951
677.684875	972.622620	6262.457031	1339.380859	6.933265
678.013977	971.805359	6286.456543	1347.702759	7.072852
678.343079	968.610352	6325.835938	1354.835815	7.209431
678.672180	973.439941	6374.207031	1354.761475	7.060507
679.001221	971.359558	6455.048828	1356.693359	7.026908
679.330139	977.006531	6541.240234	1367.913086	7.025344
679.659058	979.607117	6645.264160	1377.349487	7.020234
679.987976	985.477051	6755.752441	1385.968628	6.940597
680.316772	981.390381	6776.631348	1380.098755	6.879927
680.645630	976.635010	6780.494629	1384.259766	7.023340
680.974304	972.102539	6740.891113	1386.488770	7.183245
681.302979	968.164551	6726.625000	1380.024414	7.152256
681.631653	965.935364	6690.662598	1370.290649	7.063311
681.960266	969.650574	6646.750000	1370.216431	7.055819
682.288757	980.498718	6601.202637	1370.290649	6.934931
682.617249	986.888733	6514.342285	1367.021484	6.877177
682.945679	986.665833	6415.965332	1353.572632	6.757903
683.274109	979.309875	6309.638184	1349.931763	6.953078
683.602478	977.080811	6207.472656	1335.739990	6.857214
683.930725	972.548340	6131.609375	1329.944336	6.927540
684.259033	978.492493	6049.728027	1324.817505	6.829204
684.587280	975.074524	5996.080566	1328.161133	7.032189
684.915344	979.458496	5919.028809	1318.501831	6.863822
685.243469	982.504883	5867.537109	1318.130249	6.870484
685.571533	986.591492	5808.169434	1312.854736	6.766731
685.899536	982.207703	5783.798340	1320.136353	7.037848
686.227539	976.040527	5768.566406	1312.260376	7.015504
686.555420	980.498718	5795.835449	1308.768066	6.817163
686.883301	986.071289	5829.717285	1298.291504	6.445975
687.211121	989.117737	5850.225098	1299.331665	6.381548
687.538940	978.789734	5865.011230	1310.402710	6.786695
687.866638	971.433777	5874.373535	1312.186035	6.949958
688.194336	969.130371	5871.697754	1308.099487	6.914114
688.521973	970.021973	5847.104004	1298.811646	6.741524
688.849609	969.204590	5793.754395	1301.932251	6.896554
689.177063	967.867188	5736.689941	1299.331665	6.950656
689.504578	977.972473	5654.288574	1289.820923	6.668678
689.832031	981.687561	5592.021973	1281.350464	6.499808
690.159485	982.802063	5536.890137	1276.372192	6.446299
690.486816	981.836121	5498.252441	1276.520874	6.524747
690.814087	991.049622	5439.107910	1277.561035	6.441269
691.141296	991.718445	5379.294434	1278.749878	6.541914
691.468506	983.247864	5325.870605	1279.641479	6.825222
691.795715	970.319275	5275.567383	1269.833496	6.956956
692.122803	968.981750	5220.657715	1270.427856	7.090054
692.449829	973.811462	5179.122559	1259.951172	6.804246
692.776855	983.024963	5131.345703	1254.452759	6.543077
693.103821	981.613281	5101.550293	1243.010254	6.344684
693.430664	978.343933	5063.804688	1246.428223	6.561911
693.757568	974.183044	5056.671387	1253.264038	6.836051
694.084351	975.000305	5032.895020	1257.499390	6.961715
694.411133	973.885742	5030.739746	1260.025513	7.053243
694.737854	970.987976	5013.649902	1258.613770	7.114763
695.064575	978.566895	5030.294434	1254.898682	6.820098
695.391174	985.105469	5037.427246	1258.465210	6.745756
695.717773	983.322266	5072.275391	1266.861328	6.934270
696.044250	976.040527	5114.776855	1274.960327	7.222489
696.370789	968.684570	5181.648926	1276.966431	7.317457
696.697205	975.297546	5246.663574	1270.427856	6.909506
697.023621	970.839355	5358.043457	1276.743652	6.972648
697.349915	968.387390	5500.110840	1288.706421	7.068371
697.676208	963.706299	5692.033691	1305.944702	7.238044
698.002380	969.056091	5878.459473	1324.520386	7.240479
698.328674	972.994141	6063.622559	1338.192139	7.173928
698.654724	975.297546	6213.119141	1359.145508	7.328389
698.980896	978.641174	6327.248047	1367.095825	7.262726
699.306946	988.003357	6340.770996	1367.615845	7.091892
699.632935	992.164246	6281.403809	1355.653198	6.872234
699.958862	991.272644	6152.636719	1343.318848	6.820797
700.284729	983.545105	5994.223145	1321.845337	6.751585
700.610596	983.619385	5815.525391	1306.167480	6.675380
700.936340	979.235596	5616.914063	1291.158325	6.725837
701.262146	982.281982	5428.036621	1283.579468	6.777195
701.587830	978.418213	5257.437500	1279.715698	7.041274
701.913513	979.681335	5101.179199	1269.239136	7.025548
702.239075	977.080750	4981.923340	1255.938965	6.963026
702.564697	971.805237	4876.339355	1238.700684	6.835526
702.890137	971.433777	4785.689941	1225.326172	6.656406
703.215698	976.486328	4723.498535	1223.988770	6.605328
703.541016	979.532776	4653.133301	1215.146606	6.413703
703.866455	979.384216	4606.322754	1212.471924	6.426569
704.191711	972.251160	4546.360840	1214.626709	6.781425
704.517029	970.839355	4505.048340	1209.499756	6.752866
704.842163	966.529785	4467.673828	1211.728760	7.003396
705.167419	965.266663	4449.098145	1208.682373	6.987011
705.492493	968.684570	4427.625000	1206.527588	6.876182
705.817566	975.594727	4410.832520	1204.521484	6.664073
706.142578	979.607117	4389.358887	1200.806274	6.487251
706.467590	982.504883	4407.488770	1209.128174	6.616770
706.792480	975.520447	4403.327637	1211.357300	6.880109
707.117371	973.811523	4415.067871	1214.032227	6.980610
707.442200	966.975586	4392.925781	1209.573975	7.081200
707.766907	968.535950	4397.160645	1211.951782	7.099518
708.091675	961.774414	4400.355957	1213.140503	7.310168
708.416321	964.672180	4433.643066	1220.199341	7.366080
708.741028	968.981750	4486.026855	1212.397461	6.921029
709.065552	975.223206	4508.614746	1216.261230	6.821718
709.390137	975.743347	4517.902832	1216.112671	6.785954
709.714600	979.161316	4505.271484	1224.954712	6.970667
710.039063	985.179749	4536.924316	1230.230103	6.899436
710.363403	985.031250	4589.530762	1232.533569	6.866482
710.687744	983.247864	4658.334961	1243.901855	7.092457
711.012085	982.059082	4718.594727	1243.381836	6.993718
711.336304	987.334473	4741.256836	1251.332153	7.032582
711.660461	983.619385	4742.371582	1248.805908	7.055174
711.984619	981.836121	4721.120605	1245.313599	7.046200
712.308716	983.470764	4698.606934	1242.341431	6.967999
712.632751	982.802063	4660.043457	1234.242554	6.837748
712.956726	989.043640	4611.227051	1232.236328	6.713981
713.280701	987.854736	4557.877441	1223.691406	6.606027
713.604553	995.433594	4505.122559	1221.610962	6.444371
713.928467	985.328369	4453.259277	1217.450073	6.693377
714.252258	979.829895	4430.076660	1219.753540	6.953811
714.575989	973.885742	4421.531738	1221.611206	7.185351
714.899719	972.845520	4420.194824	1222.725586	7.248469
715.223267	972.994141	4417.074219	1219.010376	7.143162
715.546936	975.074646	4428.591309	1216.632813	6.994556
715.870422	977.377991	4434.386230	1214.180786	6.849934
716.193970	975.966248	4407.711426	1215.369629	6.976141
716.517395	977.155090	4365.062012	1218.044556	7.110274
716.840820	979.235596	4316.170410	1216.112671	7.098642
717.164124	975.743347	4279.687988	1212.397583	7.162778
717.487488	968.907471	4234.958008	1203.629883	7.186736
717.810730	964.820801	4178.859375	1202.069458	7.381637
718.133972	966.975586	4112.581543	1202.663818	7.492618
718.457092	965.712463	4046.823486	1197.016846	7.507174
718.780212	964.300781	4000.161377	1183.790894	7.229914
719.103210	970.170654	3940.421875	1175.171753	6.901810
719.426208	979.458496	3896.360352	1171.902466	6.597547
719.749207	983.099304	3826.292969	1169.153198	6.543835
720.072083	981.241699	3796.051514	1169.673340	6.694294
720.394958	970.913635	3760.683350	1167.444458	7.044697
720.717773	977.526672	3740.175781	1172.199829	7.046612
721.040527	973.811462	3705.179443	1167.741577	7.100110
721.363281	980.572998	3673.377930	1169.747681	7.025191
721.685913	981.241699	3661.043701	1165.883911	6.890144
722.008545	987.854675	3653.539063	1168.410278	6.773330
722.331055	985.551331	3643.210938	1163.060425	6.679151
722.653503	977.080750	3627.012939	1170.639282	7.304283
722.976013	975.000244	3616.164795	1166.924194	7.266641
723.298401	978.864075	3601.972900	1162.466187	6.999409
723.620789	984.733948	3600.709961	1152.806641	6.424856
723.943115	980.127197	3592.833984	1149.017212	6.464178
724.265381	975.817627	3593.131104	1148.422974	6.594752
724.587585	977.749512	3582.580078	1161.648804	7.059933
724.909790	972.919739	3586.740967	1167.221558	7.433630
725.231873	978.418213	3590.827393	1166.627075	7.204417
725.553894	969.724792	3604.424805	1156.447632	7.087063
725.875916	1018.095886	3652.201904	1199.617554	6.891206
726.197937	1016.015442	3677.613281	1211.580200	7.347645
726.519775	1021.513855	3687.124023	1208.310913	7.007666
726.841675	983.619446	3669.811523	1168.113159	6.868225
727.163513	979.309875	3681.848389	1169.673462	7.043880
727.485291	981.316101	3710.975342	1170.713745	6.938509
727.806946	976.560730	3738.615479	1167.518677	6.913620
728.128662	986.591553	3749.166748	1165.140991	6.463152
728.450256	980.647278	3772.720703	1175.468994	6.977672
728.771790	976.189148	3761.798096	1173.983032	7.100562
729.093323	963.706299	3763.061279	1171.605347	7.426677
729.414795	956.498962	3739.135986	1168.484497	7.618153
729.736145	960.511230	3740.101563	1166.924194	7.426021
730.057495	962.666077	3736.089111	1166.106812	7.335366
730.378845	975.223206	3751.990234	1166.107056	6.874320
730.700134	984.436707	3758.380127	1171.679810	6.750070
731.021301	990.083740	3798.429443	1173.611694	6.535091
731.342468	986.963074	3822.726563	1171.308105	6.500720
731.663574	985.328430	3848.212158	1174.354614	6.602650
731.984680	985.179871	3845.165771	1175.246094	6.645705
732.305664	986.963074	3834.168945	1177.772339	6.701632
732.626648	984.659607	3837.661377	1173.611450	6.622914
732.947571	988.151855	3830.156494	1162.243164	6.125652
733.268433	988.151855	3814.701904	1165.661133	6.280068
733.589233	989.117859	3790.776123	1165.438110	6.293425
733.909973	981.538879	3747.606445	1177.549438	7.086253
734.230713	973.811462	3727.544678	1167.221436	7.023555
734.551331	966.083984	3667.805420	1160.311157	7.189015
734.871948	967.124207	3628.350586	1148.125610	6.801428
735.192505	969.353333	3556.796875	1146.788208	6.857536
735.513062	970.022034	3516.524658	1146.119507	6.915267
735.833435	971.359558	3467.261963	1147.382690	7.052485
736.153931	964.449402	3435.534912	1145.376465	7.321765
736.474304	970.170715	3405.145264	1142.850220	7.091635
736.794617	973.737244	3379.138916	1139.209351	6.879189
737.114807	980.795898	3373.938232	1134.008179	6.402138
737.434998	978.046692	3382.259766	1129.252808	6.289214
737.755188	975.743347	3412.872314	1135.345581	6.548781
738.075256	980.498779	3421.045898	1142.701538	6.646164
738.395325	977.600891	3437.541016	1150.206177	7.016645
738.715271	978.789734	3463.696045	1148.571411	6.832519
739.035278	975.223206	3493.565186	1148.720093	6.889330
739.355164	972.176819	3512.661133	1153.624023	7.142229
739.675049	973.068542	3503.076172	1156.670410	7.256969
739.994873	973.365723	3498.915283	1157.116211	7.275663
740.314636	982.504883	3453.144775	1159.270996	7.154669
740.634277	981.761902	3420.749023	1159.196655	7.274936
740.953979	986.220032	3367.176758	1156.744751	7.162025
741.273499	990.603821	3344.440186	1149.537476	6.752111
741.593140	991.123962	3301.715820	1143.667480	6.601924
741.912598	986.071350	3265.678711	1137.203247	6.629734
742.232117	979.830017	3220.725586	1134.305298	6.893462
742.551453	970.987976	3190.187500	1130.367310	7.181839
742.870850	975.891907	3160.094727	1132.522095	7.171046
743.190063	971.210938	3143.673828	1127.469482	7.192691
743.509338	971.805359	3120.788818	1125.983398	7.174464
743.828552	963.557678	3097.828857	1125.909180	7.606882
744.147705	964.820801	3072.120117	1120.559326	7.390432
744.466797	967.867249	3062.163330	1117.958862	7.166685
744.785828	972.474060	3057.631104	1114.169312	6.795424
745.104858	975.817688	3037.495361	1120.410767	7.013370
745.423706	974.628845	3023.451904	1124.868774	7.332987
745.742615	969.947754	2999.452393	1116.546875	7.223394
746.061401	964.077820	3005.024658	1111.494263	7.222944
746.380249	966.009705	3002.126953	1111.494385	7.145202
746.698975	973.217041	3000.417969	1112.980469	6.894404
747.017639	969.576172	2984.071533	1102.800903	6.613306
747.336304	970.616394	2969.433838	1097.005249	6.323182
747.654907	959.842529	2964.083984	1098.491333	6.917769
747.973389	971.433777	2971.440186	1108.596558	6.858117
748.291931	968.313049	2968.096436	1112.609009	7.215579
748.610352	976.560730	2978.350342	1111.420044	6.736938
748.928711	973.811523	2986.375000	1113.203491	6.926091
749.247070	980.795959	2986.597900	1112.237427	6.553063
749.565308	975.594727	2983.774414	1114.317871	6.907905
749.883545	972.771240	2975.303955	1110.825684	6.893992
750.201782	966.975586	2971.588867	1110.231323	7.146303
750.519836	974.405945	2960.294922	1116.918457	7.176258
750.837952	978.418274	2959.106201	1120.262085	7.161341
751.155884	980.647400	2953.458984	1121.228027	7.125903
751.473877	991.792786	2956.282471	1117.067017	6.376935
751.791809	991.049744	2931.093750	1113.352051	6.304100
752.109619	991.272644	2927.230225	1111.345825	6.202263
752.427490	980.052917	2913.707031	1107.779297	6.605441
752.745300	978.343933	2931.762451	1115.655396	7.029291
753.062988	978.789734	2933.917236	1120.336426	7.239768
753.380615	978.343933	2918.090576	1120.559204	7.331642
753.698303	982.802063	2895.874268	1115.581055	6.940616
754.015808	984.808289	2894.239502	1111.420044	6.630863
754.333374	983.396545	2906.871094	1117.512939	6.972610
754.650757	986.665833	2906.127930	1116.844238	6.782025
754.968262	979.607117	2902.264404	1114.466553	7.014222
755.285583	977.229309	2890.524170	1109.413940	6.908743
755.602905	967.049988	2898.251953	1111.865845	7.498743
755.920105	969.576172	2893.496338	1116.175415	7.619820
756.237305	964.969482	2903.675781	1116.398315	7.810819
756.554443	970.393555	2894.239502	1116.621216	7.600799
756.871582	977.600891	2887.923828	1110.751343	6.970049
757.188599	982.356262	2898.772217	1112.608887	6.796678
757.505615	984.213806	2929.310547	1111.271484	6.532204
757.822510	977.080811	2961.037842	1113.797852	6.891129
758.139465	979.384094	2982.510986	1113.723511	6.706485
758.456238	972.251160	2997.000244	1111.717285	6.888070
758.773010	968.015869	3022.708984	1113.872070	7.098685
759.089783	964.672180	3046.337158	1109.859741	6.974588
759.406433	965.118103	3055.402344	1115.729614	7.205313
759.723145	971.656677	3041.433594	1111.791626	6.770534
760.039673	980.721619	3031.253906	1115.581055	6.576802
760.356201	985.254089	3030.362061	1113.129028	6.252723
760.672668	986.294250	3049.235107	1111.940186	6.090622
760.989136	981.836121	3042.399170	1111.122925	6.274343
761.305481	981.613220	3048.640625	1107.333374	6.082172
761.621826	983.099304	3054.436279	1115.506714	6.392365
761.938049	986.814453	3078.956299	1118.553101	6.296832
762.254333	989.786621	3109.865967	1122.119629	6.241889
762.570496	989.638000	3184.540283	1122.045410	6.032496
762.886597	986.591553	3322.000244	1131.258911	6.194520
763.202637	987.408936	3517.416260	1145.599365	6.252568
763.518677	988.226257	3732.671631	1164.323608	6.416501
763.834656	988.746277	3938.861328	1180.075806	6.485494
764.150574	984.436768	4074.315186	1191.072510	6.687504
764.466370	980.573059	4121.869141	1187.505981	6.587501
764.782288	980.498779	4053.659424	1183.716675	6.612668
765.097961	977.972412	3932.546143	1177.029419	6.737249
765.413696	980.721680	3742.553955	1172.645630	6.949153
765.729309	977.080872	3578.642334	1158.082153	6.957409
766.044861	978.715515	3409.231689	1144.113281	6.805047
766.360474	973.291321	3273.629150	1132.670654	6.928518
766.675903	970.765076	3169.085205	1127.543579	7.131742
766.991394	970.690735	3088.838135	1121.971069	7.142106
767.306763	972.548340	3039.204346	1126.206421	7.435107
767.622131	981.538879	2978.647705	1123.011353	7.083864
767.937378	982.950684	2933.397217	1120.187866	7.036193
768.252625	984.585388	2897.063232	1115.283813	6.833984
768.567810	972.399719	2866.747803	1107.482056	7.130808
768.882996	966.083984	2823.280518	1109.116699	7.701539
769.197998	959.693909	2784.568604	1107.927856	8.122966
769.513062	965.117981	2741.399170	1105.624512	7.910151
769.828064	968.015808	2724.829346	1099.531616	7.486043
770.142944	973.588562	2695.851318	1090.763916	6.803570
770.457825	975.891907	2675.046631	1097.079712	7.132240
770.772705	977.377930	2655.727783	1097.971436	7.185243
771.087402	976.486328	2656.470947	1105.921753	7.704560
771.402100	970.096375	2651.418213	1098.491455	7.636556
771.716736	974.034424	2644.359375	1088.386230	6.846081
772.031372	973.662842	2614.787354	1082.293579	6.619287
772.345947	976.337708	2593.685303	1083.705200	6.638492
772.660461	976.783508	2572.286133	1086.528687	6.878407
772.974854	978.566833	2569.982666	1090.318115	7.022130
773.289246	980.647278	2567.530518	1089.797974	6.878306
773.603638	976.783508	2551.258057	1091.135376	7.262859
773.917908	974.480164	2538.775391	1077.240845	6.569136
774.232178	974.777344	2523.171631	1068.250122	6.036756
774.546265	971.210876	2506.750732	1066.095459	6.179233
774.860474	974.628845	2480.447754	1069.736206	6.315989
775.174561	978.269592	2465.364258	1076.200562	6.585389
775.488586	978.864014	2448.497559	1082.887817	7.078214
775.802551	980.870178	2442.850586	1080.361572	6.805248
776.116516	979.607117	2425.760742	1080.658813	6.987619
776.430359	983.247864	2427.692871	1072.411255	6.172847
776.744202	981.984802	2413.352295	1079.098511	6.784680
777.057922	972.994141	2412.312256	1075.086060	7.093075
777.371704	973.291321	2395.593994	1075.011719	7.151811
777.685303	970.393555	2395.668457	1070.925171	7.053490
777.998962	973.960144	2399.680664	1078.726929	7.348340
778.312500	969.130371	2417.661865	1084.151001	7.940499
778.626038	966.752747	2421.005615	1084.819824	8.118744
778.939453	965.861023	2413.649414	1083.185059	8.103673
779.252869	973.588562	2402.727051	1080.510254	7.481549
779.566223	975.223206	2391.507324	1075.606201	7.087772
779.879578	986.294373	2382.145264	1071.668091	6.116250
780.192749	990.752502	2384.151367	1071.073608	5.764401
780.505920	994.170410	2400.646729	1069.884888	5.383274
780.819031	987.483093	2412.386475	1061.785889	5.214585
781.132141	980.127136	2398.789063	1055.841675	5.337039
781.445190	974.851746	2375.160889	1061.785889	6.208211
781.758118	976.486389	2365.798584	1068.918945	6.653116
782.071045	974.480286	2353.092773	1072.782715	7.130534
782.383911	980.498779	2340.758545	1070.627808	6.625869
782.696838	982.579163	2311.854736	1064.460815	6.159870
783.009583	983.619385	2294.393555	1064.460815	6.167457
783.322266	979.384094	2281.836670	1063.346313	6.446470
783.634888	974.182922	2268.759277	1065.501099	7.053904
783.947510	979.012695	2258.579834	1064.386475	6.672083
784.260132	982.207703	2253.378662	1067.953003	6.745379
784.572571	979.830017	2253.972900	1067.655762	6.892928
784.885010	972.548340	2252.115479	1066.615601	7.351491
785.197449	972.176758	2246.171143	1065.203979	7.302012
785.509766	979.829895	2233.465332	1062.454712	6.590816
785.822083	985.254089	2230.864990	1070.107788	6.812216
786.134277	981.984680	2222.320068	1069.364868	7.044884
786.446533	979.309814	2229.156006	1073.302734	7.520359
786.758606	978.641113	2234.728760	1062.528931	6.678500
787.070740	983.990967	2227.818604	1058.442261	5.985660
787.382690	978.938293	2224.103271	1059.036743	6.432758
787.694641	974.257324	2238.295166	1064.237915	7.118505
788.006653	967.718567	2289.341064	1067.284302	7.533598
788.318481	974.405945	2347.743164	1071.296509	7.055119
788.630310	968.238770	2387.718018	1079.841431	7.862226
788.942017	969.947754	2404.213135	1083.259399	7.900326
789.253784	969.724792	2399.977783	1085.785645	8.114708
789.565430	977.526611	2388.014893	1081.178833	7.348677
789.877014	970.319275	2372.634277	1075.086060	7.470988
790.188538	967.049988	2338.157959	1068.621704	7.408003
790.500061	966.604065	2298.257324	1064.757935	7.370828
790.811462	981.836182	2252.338135	1069.216187	6.877597
791.122925	980.275818	2222.988525	1066.764160	6.959641
791.434204	976.634949	2201.143555	1067.581543	7.427191
791.745483	968.833191	2188.958008	1064.015015	7.800991
792.056702	975.446106	2175.732178	1068.175903	7.725641
792.367920	978.195313	2159.831299	1066.169800	7.445143
792.678955	973.885742	2142.593018	1066.466919	7.921674
792.990112	971.359436	2134.717041	1057.624878	7.415213
793.301086	972.399658	2133.751221	1051.012085	6.769046
793.612122	975.891907	2129.739014	1046.033813	6.078960
793.922974	971.730957	2125.057861	1052.646729	7.015857
794.233826	973.588623	2128.698486	1061.117188	7.577510
794.544556	977.675110	2141.552979	1064.460815	7.456599
794.855286	980.275696	2143.707764	1062.083130	7.031560
795.166016	981.018799	2146.531250	1056.658936	6.489861
795.476624	976.634949	2151.063721	1053.018188	6.503863
795.787292	973.885742	2165.255615	1049.303101	6.330306
796.097778	969.501953	2176.178223	1054.578491	7.050486
796.408264	967.124207	2214.221191	1055.172974	7.060298
796.718689	972.102539	2236.809082	1062.528931	7.149990
797.029053	984.139465	2257.019287	1055.990356	5.644750
797.339355	986.517273	2251.595459	1059.333984	5.755906
797.649658	984.362488	2238.740967	1055.395752	5.662826
797.959839	975.074646	2216.970459	1057.773438	6.659077
798.270020	981.018799	2192.376221	1049.005737	5.612459
798.580078	978.195374	2183.088135	1051.160645	6.055748
798.890137	974.331604	2175.880859	1050.640503	6.350875
799.200195	968.981750	2156.116211	1061.340088	7.779939
799.510071	969.130371	2132.785400	1062.603271	8.032699
799.820007	967.198486	2118.296143	1063.123413	8.333344
800.129883	967.941589	2100.389160	1059.556763	8.090015
800.439575	970.319153	2086.345947	1051.160522	7.243676
800.749329	977.675232	2071.039795	1043.804565	6.048242
801.058960	975.223206	2067.919189	1042.467163	6.153949
801.368591	977.006409	2059.448486	1050.417603	6.781997
801.678162	975.743347	2054.469971	1054.875732	7.335722
801.987671	980.498718	2039.981079	1045.736450	6.157510
802.297119	975.594727	2043.101929	1042.912964	6.306116
802.606506	978.418152	2030.916382	1039.197876	5.774805
802.915894	975.668945	2029.950317	1042.095703	6.300667
803.225159	976.263428	2020.291016	1038.231934	5.935524
803.534424	968.164490	2013.232300	1048.337036	7.671516
803.843628	967.644348	2015.461304	1054.058350	8.247052
804.152771	970.690735	2008.253906	1058.813843	8.493276
804.461792	975.594666	2014.718262	1048.931519	7.057568
804.770874	980.647278	2014.346680	1044.547607	6.181713
805.079773	985.179688	2022.743164	1041.203979	5.399601
805.388733	989.637939	2021.776978	1048.634277	5.715930
805.697571	986.220032	2022.000000	1051.383545	6.291250
806.006470	978.195313	2033.591187	1054.207031	7.202200
806.315125	974.851746	2043.622070	1056.584717	7.647385
806.623901	979.235535	2061.380615	1057.327759	7.216429
806.932495	987.111633	2056.104980	1059.333862	6.756097
807.241150	986.517273	2050.755127	1057.699341	6.688549
807.549622	979.235535	2028.167114	1059.779785	7.678694
807.858154	971.805359	2015.461304	1057.922119	8.251451
808.166565	966.678406	2005.207520	1055.915894	8.592681
808.474915	971.879578	1993.987793	1049.154419	7.560338
808.783264	974.331543	1984.254272	1051.829224	7.673625
809.091492	977.898132	1972.663086	1044.101929	6.655220
809.399719	974.554443	1973.851929	1048.857178	7.435497
809.707825	977.526611	1959.808594	1040.906860	6.452348
810.015930	977.898132	1943.536255	1045.885132	7.040629
810.323975	981.167419	1927.189453	1036.522949	5.851399
810.632080	978.269531	1923.846069	1036.225708	6.129189
810.939880	983.247864	1925.703613	1030.430176	5.006316
811.247864	982.207703	1919.462280	1034.071045	5.533538
811.555664	979.012695	1919.313599	1027.978271	5.207437
811.863464	972.919861	1912.031860	1028.498413	5.918203
812.171143	976.114807	1908.093872	1026.120605	5.365550
812.478882	978.492493	1901.703735	1028.349731	5.400415
812.786438	976.783630	1901.778320	1029.761353	5.727354
813.094055	973.960144	1880.899048	1035.111206	6.742578
813.401489	975.743347	1867.524536	1035.779907	6.732207
813.708984	981.538879	1856.602051	1030.504395	5.595655
814.016357	989.489258	1873.691772	1029.092651	4.478996
814.323730	986.517273	1880.453247	1032.139160	5.103485
814.630981	990.678162	1875.326538	1036.597290	5.190664
814.938232	981.836182	1865.964233	1040.312378	6.613996
815.245361	981.316101	1862.174805	1036.820190	6.301134
815.552490	978.938416	1858.905396	1038.900757	6.814158
815.859619	977.675293	1865.964355	1032.213501	6.139691
816.166565	980.721619	1870.719727	1038.752075	6.520290
816.473572	975.520325	1881.716431	1037.563110	6.846508
816.780457	975.371765	1877.927124	1034.665405	6.569530
817.087341	976.932129	1881.270630	1032.287598	6.121100
817.394043	974.628723	1888.403687	1031.619019	6.236798
817.700806	976.337708	1899.994995	1043.730347	7.296282
818.007507	972.251160	1904.750366	1042.912964	7.577680
818.314209	975.966248	1904.081543	1047.296875	7.685535
818.620667	971.062256	1916.415894	1039.940796	7.286008
818.927246	974.331604	1936.477539	1045.290649	7.375082
819.233704	976.114929	1976.229492	1041.724121	6.560168
819.540161	970.319275	2020.365234	1050.714844	7.656386
819.846497	974.628845	2074.011719	1055.990356	7.400653
820.152832	973.960022	2150.320801	1067.358521	7.939613
820.458984	983.024902	2238.964111	1072.708374	7.140749
820.765259	976.114746	2352.869873	1081.847656	7.679863
821.071350	977.377930	2453.995850	1091.729980	7.744187
821.377502	985.848450	2632.768311	1105.550171	7.268218
821.683472	987.557434	2994.102539	1120.484985	6.624698
821.989441	987.111633	3688.089844	1165.363770	6.599540
822.295349	985.922852	4808.203613	1236.917358	6.566616
822.601196	991.272644	6238.531250	1331.950684	6.492496
822.907043	986.442932	7583.929688	1415.020996	6.496081
823.212769	977.898132	8389.594727	1473.645874	6.688721
823.518494	976.486328	8365.371094	1481.299194	6.832057
823.824097	976.040527	7673.093262	1444.593384	6.996404
824.129700	975.743347	6619.927246	1369.176270	6.970590
824.435242	975.743347	5585.187500	1296.731079	6.963697
824.740723	981.167480	4721.640625	1232.459106	6.718177
825.046082	983.099304	4073.275391	1189.066284	6.665218
825.351501	978.641113	3601.453125	1154.218384	6.694238
825.656799	971.508118	3291.461914	1132.224731	6.927578
825.962036	972.399719	3101.544189	1118.330200	6.853949
826.267212	975.891907	3004.876221	1116.992798	6.954262
826.572449	975.743347	3017.730713	1116.472778	6.891788
826.877502	969.353271	3157.122803	1131.110352	7.393698
827.182495	962.814636	3440.216064	1148.794312	7.507047
827.487488	965.638184	3799.989990	1173.760010	7.342837
827.792419	974.480164	4104.407715	1192.855835	6.977020
828.097290	977.823730	4204.791016	1199.022949	6.854709
828.402100	977.006409	4059.974854	1189.363647	6.888077
828.706848	976.114929	3729.253662	1162.540405	6.771380
829.011597	977.749512	3335.077881	1131.258911	6.512007
829.316223	979.904297	2958.808594	1103.989868	6.270418
829.620789	982.207703	2657.733887	1084.596802	6.110863
829.925354	979.755676	2429.253174	1076.720703	6.689561
830.229797	986.071350	2268.536377	1067.730103	6.367328
830.534302	982.504883	2141.255615	1056.956177	6.425135
830.838562	988.151855	2055.658936	1044.324707	5.262059
831.142944	985.105469	1997.851563	1041.947144	5.612628
831.447144	988.374756	1958.322632	1041.575562	5.484914
831.751404	981.464600	1934.545532	1050.714722	7.265923
832.055542	981.613220	1916.118530	1053.538208	7.696584
832.359619	983.842285	1922.285645	1058.070679	7.909736
832.663635	981.315979	1950.372192	1055.990234	7.705874
832.967651	984.659668	1998.743164	1054.207031	6.858150
833.271545	982.653503	2096.674316	1054.578491	6.456342
833.575439	989.192078	2255.310547	1053.538208	5.082158
833.879211	983.099304	2501.252441	1071.148071	5.799729
834.183044	981.538879	2754.921875	1093.364502	6.305779
834.486694	980.647278	2947.663086	1115.655396	6.863601
834.790344	985.254089	3001.681396	1122.491211	6.805954
835.093933	980.795898	2927.898682	1108.596558	6.563632
835.397522	982.059082	2755.887939	1096.633789	6.459175
835.700928	976.411926	2560.694580	1073.377075	6.120445
836.004395	979.755676	2366.393311	1064.237793	6.092587
836.307739	973.811462	2211.546143	1055.916016	6.633454
836.611023	969.427673	2083.374023	1060.968628	8.217717
836.914307	963.260437	1981.876465	1049.302979	8.447004
837.217529	966.306824	1899.548950	1037.711792	7.651280
837.520691	964.226379	1824.131836	1024.783081	7.042251
837.823730	959.916809	1776.652344	1024.857422	7.951241
838.126831	960.065430	1728.281250	1023.371277	8.240633
838.429749	966.604065	1692.170288	1017.724304	7.045565
838.732727	978.715393	1652.343872	1014.455017	5.305539
839.035522	984.065247	1626.189453	1021.811035	5.878269
839.338379	982.207581	1626.932251	1028.349731	7.156877
839.641113	977.229309	1637.111816	1032.139038	8.321137
839.943848	972.473938	1682.213501	1022.479736	7.045655
840.246460	979.161194	1730.733276	1027.755249	6.465655
840.549072	983.693787	1796.565430	1027.903809	5.438746
840.851563	982.207703	1827.104004	1035.928589	6.358282
841.154053	980.201599	1841.815918	1029.389771	5.708838
841.456482	983.693787	1816.107056	1022.405457	4.650535
841.758850	978.789795	1768.924805	1018.095886	4.974605
842.061157	978.492493	1700.120605	1017.798645	5.446871
842.363403	969.130371	1645.136719	1023.891541	8.100689
842.665588	975.297546	1598.103027	1017.501465	6.776421
842.967712	971.210938	1553.818481	1014.900879	7.499034
843.269775	968.238770	1522.611328	1015.569641	8.537737
843.571777	965.861084	1508.493774	1014.380676	8.941517
843.873840	972.325378	1497.720093	1009.253845	7.028709
844.175659	977.898132	1482.339233	1006.801819	5.729844
844.477600	976.040527	1468.741821	1010.071228	6.906964
844.779297	971.582458	1465.621094	1011.408691	8.061360
845.081116	975.817688	1457.596558	1014.826477	8.096825
845.382751	981.316101	1449.200195	1013.043213	6.780977
845.684387	985.254089	1439.763794	1009.922546	5.427487
845.985962	981.761902	1424.011719	1000.114563	4.149840
846.287537	975.371887	1413.683594	1000.263184	5.678903
846.588989	970.170654	1400.234741	1000.411804	7.031777
846.890381	964.077820	1397.857056	996.325195	7.434052
847.191711	972.399658	1387.231812	993.130188	4.997330
847.493042	969.724792	1379.875977	1000.114685	7.409437
847.794250	975.594788	1369.696289	1014.677979	9.917037
848.095459	978.046692	1368.879028	1011.780090	8.631168
848.396606	980.870300	1365.461060	1009.699646	7.496110
848.697693	986.294373	1362.711914	1000.114563	3.671505
848.998657	979.458496	1357.807983	1001.674988	5.871950
849.299622	988.969238	1356.544800	995.210632	1.697989
849.600464	987.483154	1353.201172	991.941345	1.219024
849.901367	995.804993	1345.845093	995.359192	-0.127357
850.202087	989.340637	1343.170288	998.479980	2.582978
850.502808	979.978516	1349.857544	1003.458252	6.347950
850.803467	973.216980	1344.136230	998.702881	6.871011
851.104065	977.600891	1338.637817	995.656433	5.001024
851.404663	986.294250	1332.990723	995.507813	2.657530
851.705139	981.018738	1339.157837	990.678162	2.697115
852.005615	975.223145	1336.037231	993.798828	5.148270
852.306030	970.542175	1329.349976	994.616211	6.709452
852.606384	972.251038	1328.161133	999.594543	7.682700
852.906616	973.365662	1327.120972	998.702820	7.162340
853.206909	974.257324	1326.749390	994.690491	5.796773
853.506958	972.696960	1320.953735	993.947449	6.101960
853.807129	972.176758	1316.272705	992.832947	6.003032
854.107178	972.102539	1310.551392	991.941223	5.861649
854.407166	978.715515	1306.316040	991.049622	3.764984
854.707092	973.217102	1304.829956	991.644043	5.556763
855.007019	971.582336	1311.368652	990.529602	5.576230
855.306763	972.399719	1313.969238	993.427307	6.156167
855.606567	971.730957	1307.579224	989.637939	5.331867
855.906250	974.480164	1299.851685	994.096008	6.028753
856.205933	968.090149	1288.632202	988.449158	6.351431
856.505493	973.514221	1294.576294	983.842468	3.216900
856.805054	975.000305	1289.152344	988.077637	4.162740
857.104492	978.418213	1293.313110	996.622375	5.781028
857.403931	984.585266	1290.043823	1000.337463	5.156902
857.703308	978.121033	1300.297729	992.535706	4.474151
858.002563	983.916565	1298.514404	985.105469	0.377912
858.301819	978.492615	1301.114868	995.136414	5.158912
858.601013	984.585388	1298.439941	993.055847	2.698848
858.900208	981.910461	1307.430664	995.582031	4.199914
859.199219	987.483215	1312.706177	980.647278	-2.101923
859.498291	986.294373	1308.470825	987.631775	0.415115
859.797302	990.901062	1303.938354	991.867004	0.308571
860.096191	989.117737	1293.461792	1003.012451	4.565463
860.395020	990.901062	1285.659912	994.616211	1.260403
860.693787	989.043518	1275.703369	985.179688	-1.347880
860.992554	983.396484	1276.743652	981.241699	-0.734551
861.291260	983.470886	1292.272827	991.569824	2.622697
861.589844	986.665833	1297.102539	991.867004	1.675437
861.888428	990.306641	1291.827148	986.740051	-1.182868
862.186890	990.083740	1286.328613	981.539001	-2.884350
862.485413	982.504883	1284.396851	987.185974	1.550585
862.783813	984.213867	1287.220337	991.198303	2.305045
863.082153	981.093079	1285.882935	987.185974	1.999048
863.380371	984.139465	1293.164551	982.876465	-0.408705
863.678589	984.659668	1293.164551	986.368652	0.553957
863.976746	984.436768	1283.430908	993.873230	3.156069
864.274902	978.195313	1280.458862	996.250916	5.973464
864.572937	970.096375	1281.944946	988.597717	5.932797
864.870911	973.737122	1279.641479	983.322083	3.133320
865.168884	976.040527	1280.904663	981.093079	1.657312
865.466736	978.864075	1274.960449	991.941345	4.416559
865.764587	976.263428	1279.567261	990.901123	4.826083
866.062317	979.978699	1266.489868	993.353088	4.668017
866.360107	982.653503	1270.873779	988.151917	1.907712
866.657715	981.167419	1267.158569	992.535828	3.975091
866.955322	973.662842	1267.530151	994.987793	7.256660
867.252808	967.272766	1261.883179	991.941345	8.373288
867.550293	968.535950	1259.356812	991.272644	7.818110
867.847717	972.028259	1254.229980	993.798828	7.714541
868.145081	977.972412	1255.047241	993.873230	5.738817
868.442383	979.161316	1253.932739	991.941345	4.651149
868.739624	978.195313	1260.471313	990.232361	4.264283
869.036804	975.371826	1256.607544	992.015625	5.918096
869.333984	964.672180	1253.784058	992.981506	9.791824
869.631042	969.427551	1253.115356	991.941345	7.936116
869.928101	970.467957	1256.013184	992.089905	7.572162
870.224976	982.504883	1265.598267	990.752441	2.913370
870.521851	984.288147	1271.171021	994.319031	3.496508
870.818726	985.625549	1275.554810	989.415039	1.307039
871.115479	973.514221	1274.366089	993.427429	6.618941
871.412231	965.341003	1275.629150	987.780457	7.231811
871.708862	956.796143	1275.777710	994.170410	11.716748
872.005493	962.145813	1282.836426	986.517273	7.599680
872.302063	959.693848	1287.740601	987.706055	8.539090
872.598572	967.495667	1291.827148	990.158020	6.987405
872.895020	969.873474	1281.573364	988.374756	5.935607
873.191406	978.269592	1277.858276	993.873108	5.208313
873.487671	980.870300	1271.765259	990.009460	3.141739
873.783997	980.573059	1282.539185	997.291077	5.536388
874.080200	971.953918	1280.012939	990.306641	5.957534
874.376343	967.570068	1282.242065	996.696716	9.256193
874.672424	976.114807	1272.211304	1002.120789	8.782941
874.968445	977.972412	1273.474243	1003.532532	8.649734
875.264465	973.662903	1280.161499	997.513977	7.781789
875.560364	964.003601	1293.090210	995.507813	9.573228
875.856201	967.867249	1288.929199	992.238525	7.590833
876.152039	976.783630	1274.663208	990.306641	4.539757
876.447754	982.653503	1268.718994	982.950684	0.103885
876.743469	983.768066	1274.365967	981.316101	-0.843766
877.039063	982.430664	1280.235840	978.715393	-1.247551
877.334595	978.343933	1274.291626	982.356262	1.355756
877.630127	976.783630	1270.947876	991.867004	5.127535
877.925537	982.802063	1271.691040	1002.120850	6.687270
878.221008	992.015625	1273.771484	1004.795715	4.535874
878.516296	993.130127	1281.796265	996.028015	1.003889
878.811646	979.532715	1296.582520	994.393311	4.687149
879.106812	974.628723	1323.628662	996.028015	6.131603
879.401978	976.932129	1337.523315	999.520264	6.264195
879.697083	988.746277	1362.860474	995.953674	1.926523
879.992126	993.575989	1391.392944	998.257080	1.176695
880.287109	992.461426	1446.228149	1005.018555	2.767309
880.582031	987.334656	1512.283325	1012.225891	4.741651
880.876892	981.316101	1652.492676	1021.142273	5.933784
881.171753	977.675232	1897.765991	1028.275391	5.499475
881.466492	972.251160	2307.991211	1057.996460	6.419311
881.761230	973.885742	2846.016846	1088.534790	6.123986
882.055786	970.170654	3407.894531	1136.237305	6.812365
882.350403	970.467834	3792.856445	1158.528076	6.663159
882.644958	963.037598	3884.100342	1171.753906	7.145218
882.939453	969.799072	3682.814209	1162.168823	7.090626
883.233826	977.006409	3317.022217	1140.175293	6.972982
883.528137	982.504883	2918.982422	1111.494263	6.661032
883.822449	981.241699	2568.273682	1078.875366	6.151966
884.116577	977.229309	2282.505371	1058.145020	6.199126
884.410828	980.127197	2054.024414	1038.826294	5.465988
884.704956	979.607117	1866.484375	1021.811035	4.758710
884.999023	976.263489	1737.123413	1018.095886	5.498042
885.292969	971.879578	1623.514526	1012.077393	6.168763
885.586914	973.142761	1562.660522	1017.947327	7.600206
885.880798	974.480286	1510.648560	1014.009277	7.372498
886.174622	975.669128	1486.203125	1015.198059	7.742664
886.468384	980.424500	1457.373657	1012.448792	6.714404
886.762085	989.043640	1431.665039	1007.173340	4.095984
887.055664	990.678223	1412.123413	1001.303467	2.521145
887.349304	983.099365	1394.736328	1000.857666	4.314069
887.642822	976.635010	1370.513672	1002.046570	6.451622
887.936340	976.114807	1342.575928	1003.755432	7.542581
888.229736	979.384094	1308.396606	993.501648	4.290886
888.523071	981.687500	1287.220337	983.842346	0.705275
888.816284	980.647278	1280.087280	990.009460	3.126564
889.109619	978.938293	1275.554810	998.777161	6.688389
889.402710	975.223206	1257.350708	1003.012390	9.849867
889.695862	975.446106	1239.815308	992.387207	6.408122
889.988892	977.080811	1222.948364	990.603943	5.500170
890.281921	982.133423	1221.982422	997.068176	6.226732
>>>>>End Processed Spectral Data<<<<<
