Jaz Data File
++++++++++++++++++++++++++++++++++++
Date: Fri Jun 04 13:31:02 2021
User: jaz
Dark Spectrum Present: Yes
Reference Spectrum Present: Yes
Processed Spectrum Present: Yes
Spectrometers: JAZA3586
Integration Time (usec): 31100 (JAZA3586)
Spectra Averaged: 10 (JAZA3586)
Boxcar Smoothing: 1 (JAZA3586)
Correct for Electrical Dark: No (JAZA3586)
Strobe/Lamp Enabled: Yes (JAZA3586)
Correct for Detector Non-linearity: No (JAZA3586)
Correct for Stray Light: No (JAZA3586)
Number of Pixels in Processed Spectrum: 2048
>>>>>Begin Processed Spectral Data<<<<<
W	D	R	S	P
191.335022	0.000000	0.000000	0.000000	0.000000
191.713211	311.774200	307.316071	301.743378	225.000687
192.091385	620.056213	618.050110	607.721985	614.835083
192.469528	933.390808	929.452820	920.164978	335.852448
192.847641	935.025452	940.375244	929.006897	-112.500710
193.225739	947.582703	947.211121	941.341125	1679.730591
193.603790	957.464844	953.749695	947.434082	269.996216
193.981842	966.529785	961.923035	960.511230	130.646423
194.359863	966.455505	971.953857	963.260437	-58.109562
194.737854	968.461670	984.139465	969.204651	4.739065
195.115829	970.542175	980.944519	962.145935	-80.714890
195.493774	972.176819	973.142761	958.653625	-1400.000000
195.871704	968.758850	965.712463	951.669250	560.979309
196.249603	973.216980	963.037598	962.666016	103.650337
196.627457	972.325439	967.495667	964.969421	152.305664
197.005310	966.158264	966.306885	967.124207	649.938416
197.383133	957.464905	966.232605	956.276062	-13.559345
197.760910	956.424622	969.724792	955.755859	-5.028223
198.138687	960.734192	971.879639	961.625793	7.999693
198.516449	961.180115	970.244934	967.049988	64.754440
198.894180	967.198547	966.529785	967.792969	-88.883820
199.271866	970.616516	967.198425	965.117981	160.865677
199.649536	968.015869	978.789612	961.179932	-63.449978
200.027191	971.879578	978.046631	956.721863	-245.785370
200.404816	968.535950	975.223145	948.251282	-303.335968
200.782410	970.170654	979.235535	942.158508	-309.018372
201.159988	960.882813	990.009460	948.028381	-44.132889
201.537537	951.966492	1006.504700	948.251282	-6.812123
201.915070	951.594910	1007.990723	956.796143	9.222729
202.292557	946.988098	1005.612976	952.858093	10.012806
202.670029	953.675354	1004.201355	958.802307	10.147158
203.047485	945.947937	1003.755432	949.663086	6.426760
203.424911	943.867493	1004.721375	948.920105	8.302859
203.802292	943.941833	1007.024719	949.960266	9.540516
204.179688	946.765320	997.291016	951.743652	9.853070
204.557037	951.817871	996.770996	951.372070	-0.991701
204.934357	948.102722	993.724609	951.372070	7.166183
205.311661	942.678528	1000.560486	956.944763	24.647120
205.688934	943.941711	998.554199	958.950867	27.483009
206.066177	946.022278	993.501648	953.378235	15.492954
206.443390	951.817871	996.770996	957.910645	13.553615
206.820587	946.913818	997.811218	957.985046	21.752050
207.197769	948.919983	994.319031	957.762024	19.476271
207.574921	948.771484	986.665833	947.954102	-2.157005
207.952042	953.675476	985.625671	946.839539	-21.395605
208.329147	946.988220	992.907227	948.474182	3.236050
208.706223	955.532959	1006.281738	959.693909	8.199113
209.083267	950.034607	1007.099121	957.836365	13.671821
209.460297	951.149109	995.879395	960.585632	21.096497
209.837280	939.334961	983.916687	955.012878	35.166691
210.214264	938.889160	978.121033	957.985046	48.674419
210.591217	942.455750	986.740051	948.474304	13.590718
210.968124	953.155273	987.780334	940.375244	-36.909767
211.345016	954.492737	991.124023	933.836609	-56.389305
211.721893	946.988220	993.204529	938.591980	-18.167267
212.098724	941.118225	995.582214	948.994385	14.461225
212.475555	946.542297	1003.086731	957.613464	19.579588
212.852356	949.217285	999.743103	957.910645	17.205776
213.229126	945.353516	996.399597	955.087097	19.068224
213.605865	937.923157	990.752441	951.966370	26.582251
213.982590	937.551697	988.820618	954.269836	32.608723
214.359283	946.319519	982.356262	950.183167	10.721412
214.735931	947.879822	981.910461	942.678650	-15.283792
215.112579	953.824036	980.795898	936.585754	-63.912090
215.489197	948.845703	988.300537	931.236023	-44.632504
215.865799	949.068665	984.436707	937.403137	-32.983242
216.242355	941.118225	989.935120	942.232849	2.283275
216.618896	940.523865	992.907227	953.824036	25.390068
216.995407	947.359680	995.582214	954.046936	13.867492
217.371902	953.452576	992.758606	941.935547	-29.300920
217.748367	952.338074	991.123962	932.647766	-50.766678
218.124802	945.873718	996.622375	935.917053	-19.619564
218.501236	947.582581	991.792725	945.056335	-5.714175
218.877609	948.845703	987.706055	943.718811	-13.193118
219.253983	945.279236	992.684326	943.124329	-4.545730
219.630295	943.198730	996.845276	943.867371	1.246381
220.006592	940.078064	999.817383	943.421570	5.596826
220.382889	943.718933	993.204529	936.214172	-15.165545
220.759140	943.941711	999.668762	931.681824	-21.999886
221.135391	941.266846	1003.383972	928.783997	-20.095665
221.511581	940.523926	1006.058838	931.533203	-13.718982
221.887772	937.774597	1001.080566	938.517761	1.173924
222.263931	947.285400	1001.377747	939.483643	-14.423035
222.640060	950.257507	1006.727600	940.003723	-18.157902
223.016159	942.975830	1017.575745	932.870667	-13.545812
223.392212	931.161682	1031.098755	942.901550	11.747260
223.768265	925.886230	1035.482666	941.341125	14.101640
224.144302	935.025391	1030.504517	946.542419	12.062352
224.520294	945.204895	1028.349731	946.839539	1.966019
224.896286	940.969666	1025.749023	953.155273	14.373320
225.272217	935.545593	1028.869751	950.406067	15.923501
225.648148	928.263916	1027.458008	948.399902	20.299582
226.024048	940.449524	1026.714966	943.124329	3.100668
226.399902	940.226624	1025.526245	947.731140	8.797832
226.775772	952.486572	1022.108215	945.130554	-10.565706
227.151581	950.406067	1023.297119	953.229675	3.873738
227.527374	953.749695	1036.300171	952.040833	-2.070082
227.903137	944.313293	1050.194580	954.195557	9.333343
228.278870	943.198730	1067.432739	943.050110	-0.119630
228.654572	941.341125	1077.983887	945.576355	3.099491
229.030273	946.988098	1093.141724	954.121277	4.880603
229.405930	944.313232	1105.698853	959.842529	9.622478
229.781555	944.164734	1116.101196	960.437012	9.464123
230.157181	934.728271	1107.779297	954.046936	11.163566
230.532761	934.802551	1100.126099	954.715637	12.044918
230.908325	939.186462	1091.432739	956.647644	11.469037
231.283859	952.412292	1098.937134	953.378235	0.659235
231.659332	953.378235	1091.952759	950.480408	-2.091169
232.034821	955.830261	1080.584473	949.217285	-5.300804
232.410263	948.474304	1063.049072	951.149109	2.334549
232.785690	949.737366	1064.683716	950.554688	0.711046
233.161087	953.229675	1065.946777	948.771423	-3.955258
233.536469	944.684814	1079.544312	950.628967	4.407663
233.911804	941.638428	1086.900146	950.851868	6.342649
234.287140	927.446594	1096.559570	947.656921	11.950785
234.662430	931.236023	1092.918701	947.805481	10.248135
235.037704	933.019348	1092.770142	946.022217	8.139470
235.412933	943.867493	1095.519287	954.046875	6.712339
235.788162	943.867432	1103.543945	952.709473	5.537471
236.163345	940.969727	1105.104370	957.241943	9.913944
236.538513	933.242188	1107.036255	952.486572	11.073096
236.913635	931.384583	1105.104370	951.817871	11.762212
237.288742	935.174072	1116.026855	946.022278	5.998363
237.663834	940.003723	1121.005249	946.913879	3.817734
238.038879	952.412292	1125.389038	948.177063	-2.448439
238.413910	952.337952	1119.742065	952.932434	0.355118
238.788910	954.566956	1122.937012	955.607361	0.617928
239.163879	947.434021	1133.933838	952.783875	2.868557
239.538834	948.102722	1147.159790	963.111877	7.540127
239.913757	951.817871	1156.521851	960.957092	4.464603
240.288651	957.613525	1177.252319	964.746521	3.247603
240.663528	957.539124	1208.831055	957.241943	-0.118261
241.038361	951.743469	1240.335327	959.471008	2.677670
241.413177	942.084229	1274.291748	960.214111	5.457397
241.787979	939.112000	1304.978760	969.724854	8.367214
242.162735	938.963379	1350.080566	968.387390	7.157086
242.537476	940.300842	1370.959595	972.771240	7.539705
242.912170	945.130615	1392.581665	966.826965	4.848877
243.286865	947.879883	1387.826172	966.604065	4.256015
243.661514	950.257507	1374.526001	964.895203	3.450102
244.036148	948.177002	1349.114502	964.375000	4.040030
244.410751	950.331787	1335.665649	965.341003	3.895120
244.785339	949.440186	1335.739990	962.220215	3.308319
245.159882	948.102722	1354.835815	968.610291	5.042021
245.534378	940.449524	1388.792114	974.405823	7.573739
245.908890	943.273010	1452.246704	983.693665	7.941600
246.283356	937.774658	1525.286499	982.950684	7.689381
246.657791	949.737366	1614.375366	992.535706	6.439346
247.032196	946.245178	1687.340454	993.873230	6.426711
247.406586	955.978760	1730.213257	995.433594	5.095980
247.780960	949.365906	1735.191528	988.969238	5.039710
248.155289	951.520691	1709.482788	990.752502	5.175960
248.529602	950.480469	1670.622437	989.192139	5.375561
248.903870	948.325684	1612.369019	982.207703	5.102381
249.278122	945.650818	1546.239624	965.117981	3.241346
249.652344	934.951172	1485.980103	959.842590	4.517262
250.026550	934.059570	1440.804077	957.836426	4.692080
250.400711	939.780823	1427.652466	958.876648	3.914109
250.774857	944.387634	1432.110718	946.913879	0.517967
251.148987	945.353516	1455.961914	947.136719	0.349231
251.523071	941.564148	1478.401245	953.378113	2.200661
251.897125	944.833313	1497.645874	970.170593	4.583340
252.271164	938.889160	1509.831421	970.170593	5.478914
252.645187	941.861328	1518.896118	973.885742	5.549824
253.019165	937.477478	1520.456543	967.792969	5.200099
253.393112	946.319519	1507.750610	969.724854	4.168870
253.767044	942.530029	1478.995605	968.684570	4.875344
254.140930	951.594910	1452.618164	968.535950	3.381288
254.514801	953.452576	1438.128906	968.312988	3.066049
254.888657	948.325623	1438.054688	966.083984	3.626160
255.262466	941.861267	1437.683228	966.009583	4.870360
255.636276	939.483582	1458.785522	967.347168	5.365585
256.010010	950.108887	1480.630371	969.353271	3.627447
256.383759	953.303894	1518.078979	977.452332	4.275762
256.757446	953.006653	1542.524414	977.377930	4.134104
257.131134	945.279236	1587.403320	975.297546	4.674846
257.504791	943.644531	1634.882813	968.164490	3.547251
257.878418	938.369080	1718.473511	968.313049	3.838457
258.252014	946.542419	1810.905884	978.492493	3.696370
258.625580	948.920105	1923.771851	993.130188	4.535057
258.999115	948.845886	2053.801514	1002.046570	4.814735
259.372650	943.050110	2199.137695	1007.544922	5.134579
259.746124	934.876770	2346.554199	1011.780212	5.447664
260.119598	933.910889	2429.996338	1014.826599	5.408495
260.493042	930.344421	2442.924805	1016.981262	5.727751
260.866425	935.694153	2369.810791	1009.922546	5.175896
261.239838	945.427795	2264.152588	1012.671814	5.099170
261.613159	954.715637	2142.221924	1011.631592	4.792897
261.986511	947.656921	2044.662231	1010.368408	5.716607
262.359802	933.093567	1964.043823	998.034180	6.299103
262.733063	924.102844	1912.403442	987.631653	6.428086
263.106293	922.542542	1892.639038	982.727722	6.204041
263.479523	934.802490	1891.078491	983.693665	5.112664
263.852692	945.279236	1888.998047	985.922852	4.306751
264.225861	956.796082	1876.069336	986.740173	3.257366
264.598969	957.985046	1879.710327	996.622375	4.191849
264.972076	951.743591	1895.462524	997.959778	4.897241
265.345154	950.703308	1938.186523	1002.938049	5.289684
265.718201	943.050110	1981.727905	994.913391	4.993202
266.091217	951.520691	2046.073853	998.628601	4.303848
266.464203	952.635254	2099.572021	999.371582	4.074883
266.837158	957.687805	2146.234131	1011.408691	4.519881
267.210114	943.050232	2188.364014	1011.557190	5.501181
267.583038	935.322754	2202.407227	1014.380676	6.239357
267.955902	931.236084	2214.146729	1007.916321	5.977052
268.328766	938.517761	2209.094238	1003.309631	5.099408
268.701569	944.090393	2240.747070	1002.789490	4.526958
269.074371	954.492737	2253.675781	999.371582	3.454390
269.447144	958.430847	2295.656982	1006.430359	3.589484
269.819885	956.053040	2349.749268	1006.578918	3.625315
270.192596	951.149109	2461.872070	1017.947327	4.421606
270.565277	946.913879	2593.833740	1029.092651	4.989846
270.937927	946.096680	2723.194580	1037.043091	5.117693
271.310577	943.570313	2834.574219	1037.488892	4.966599
271.683136	943.718811	2899.366455	1034.739746	4.654260
272.055725	946.542297	2924.703857	1037.414551	4.593773
272.428284	945.056335	2897.508789	1044.473389	5.091907
272.800812	944.016113	2848.766357	1050.417603	5.586112
273.173279	943.867432	2788.878662	1040.906738	5.259551
273.545776	947.508301	2745.782471	1037.786133	5.020248
273.918152	946.690918	2701.720947	1025.600464	4.496193
274.290558	942.084167	2680.099121	1031.767578	5.160106
274.662964	936.065674	2668.953857	1033.476563	5.621303
275.035278	938.591980	2686.786377	1045.290649	6.103364
275.407593	940.746765	2705.436279	1050.194702	6.202107
275.779907	948.845764	2752.618408	1049.228638	5.565162
276.152161	949.440186	2802.252686	1044.547729	5.133144
276.524384	952.486572	2851.218018	1040.906860	4.656808
276.896606	955.755859	2884.951904	1043.581665	4.552456
277.268799	960.214050	2902.338623	1039.495117	4.082182
277.640930	958.950989	2919.205078	1041.129761	4.192251
278.013031	951.669250	2921.731689	1040.832520	4.525911
278.385162	952.263672	2929.087646	1044.770508	4.679569
278.757233	949.217285	2924.257813	1051.531982	5.180385
279.129272	945.427795	2951.824219	1050.194580	5.221639
279.501282	940.003723	2982.362549	1060.671265	5.908244
279.873230	937.328857	3051.241211	1058.516602	5.732865
280.245178	936.957336	3153.407471	1071.296509	6.061006
280.617126	941.118225	3289.901611	1069.959229	5.485435
280.988983	947.805481	3418.593750	1069.216187	4.913845
281.360870	948.399902	3522.171875	1068.621704	4.671035
281.732697	941.489746	3609.626221	1070.404907	4.831656
282.104492	939.557922	3654.059326	1084.522583	5.340379
282.476288	947.731201	3671.371826	1084.002441	5.003275
282.848053	951.446472	3645.217041	1085.191284	4.964967
283.219757	946.170898	3646.926514	1086.008667	5.177728
283.591461	938.889221	3623.000732	1088.460571	5.572472
283.963135	935.545593	3647.966553	1093.290283	5.815642
284.334747	936.511536	3693.439697	1090.392456	5.581608
284.706360	941.415466	3796.200439	1093.438843	5.325213
285.077942	941.341125	3900.744385	1091.581177	5.076701
285.449524	942.827148	3994.365479	1096.708130	5.042735
285.821014	937.551758	4013.238525	1092.547241	5.039378
286.192535	940.672424	4041.844971	1092.695679	4.902122
286.563995	939.260742	4038.501221	1090.020874	4.864422
286.935425	944.833496	4026.464600	1090.986816	4.742726
287.306824	941.415527	3942.725342	1097.971313	5.216249
287.678223	946.245178	3860.175049	1098.417114	5.222224
288.049561	941.192566	3814.255859	1102.652466	5.619782
288.420898	947.582581	3816.262451	1097.674072	5.232075
288.792145	947.062500	3859.803711	1095.222046	5.086602
289.163452	947.285339	3949.784180	1100.126099	5.090452
289.534668	947.062500	4066.662109	1099.234375	4.877930
289.905914	950.480408	4185.769531	1103.692505	4.735654
290.277039	953.675476	4286.598145	1100.125977	4.394056
290.648193	948.028503	4344.703125	1113.351929	4.867214
291.019318	944.981995	4340.541504	1112.237427	4.925710
291.390381	945.279114	4273.149414	1111.865967	5.005810
291.761475	946.245117	4201.075684	1106.144653	4.912684
292.132507	944.016113	4153.150391	1108.002197	5.109979
292.503510	945.427917	4142.599609	1105.401611	5.003601
292.874481	942.455750	4186.289551	1109.339722	5.144652
293.245422	942.604309	4271.960938	1107.482056	4.952240
293.616364	944.759094	4423.389160	1125.091797	5.184015
293.987213	947.136780	4551.487793	1131.333130	5.110389
294.358093	949.514465	4673.121094	1140.695435	5.134295
294.728943	946.468079	4790.147949	1137.871948	4.979703
295.099731	948.177002	4916.536621	1138.540649	4.797036
295.470490	948.251282	5031.260254	1155.481567	5.075430
295.841248	948.251282	5131.865723	1162.020142	5.109670
296.211975	950.406067	5253.351074	1166.701294	5.026679
296.582642	949.217224	5394.080566	1167.815796	4.918005
296.953308	947.656921	5448.470215	1174.651733	5.043417
297.323883	946.245117	5428.928223	1176.657837	5.140063
297.694519	947.433899	5309.375488	1173.760132	5.188658
298.065063	953.080994	5172.509766	1169.450562	5.127935
298.435608	949.440125	4995.817383	1166.998535	5.376622
298.806122	947.805481	4803.521973	1149.388672	5.228164
299.176575	946.393738	4638.272949	1135.122559	5.111999
299.547028	947.508240	4519.982910	1129.921387	5.106072
299.917450	946.319397	4482.831543	1134.231079	5.313475
300.287872	935.917053	4463.513184	1136.757446	5.693407
300.658234	944.090393	4461.507324	1122.491211	5.071927
301.028564	947.062500	4433.717285	1119.964966	4.958979
301.398865	961.625793	4400.801270	1114.392212	4.441949
301.769135	959.916809	4349.532715	1120.262085	4.730485
302.139374	962.368835	4297.817871	1112.534546	4.502114
302.509583	943.793213	4253.904785	1109.562500	5.007967
302.879791	942.084229	4194.091309	1106.961914	5.070028
303.249939	939.780945	4149.955078	1115.060913	5.460139
303.620087	945.279236	4112.061035	1114.615112	5.347254
303.990173	943.570251	4105.076660	1119.073242	5.551246
304.360260	949.588806	4109.757813	1108.225098	5.019867
304.730286	961.328613	4096.903809	1111.197144	4.779618
305.100281	963.186218	4092.371094	1101.612183	4.423707
305.470276	957.241943	4081.002930	1104.658569	4.719203
305.840179	950.926270	4098.389648	1096.559570	4.627006
306.210144	940.969666	4114.141113	1090.912598	4.725334
306.579987	937.551758	4164.518555	1094.256104	4.856088
306.949890	935.768494	4215.416504	1102.800903	5.092998
307.319702	942.455750	4316.690918	1117.587158	5.190255
307.689484	942.455750	4413.210449	1123.754272	5.223605
308.059265	941.415527	4528.973633	1131.407593	5.295860
308.429016	936.065674	4609.443848	1135.197021	5.420932
308.798737	940.152283	4686.867188	1126.949341	4.985622
309.168396	937.403076	4733.157715	1128.509644	5.034745
309.538055	943.198730	4751.138672	1135.940063	5.061564
309.907684	935.322693	4746.160645	1143.073120	5.451568
310.277313	940.449524	4768.228516	1146.416626	5.380851
310.646851	938.443359	4769.640625	1137.500366	5.195687
311.016388	950.777588	4777.888184	1137.277344	4.873122
311.385895	953.675476	4715.770996	1130.293091	4.694661
311.755371	954.418457	4668.068848	1133.339478	4.817928
312.124817	947.954102	4589.679199	1129.104126	4.974292
312.494232	947.359619	4521.767090	1125.760620	4.991065
312.863617	950.034485	4490.336426	1118.924683	4.770503
313.232971	950.926208	4503.710449	1121.302368	4.795568
313.602295	950.851868	4584.254395	1126.429321	4.832315
313.971619	946.988098	4663.312988	1131.036011	4.952417
314.340820	948.548523	4695.782715	1135.271240	4.982948
314.710083	939.929382	4701.727051	1136.088623	5.214508
315.079285	944.461853	4630.322754	1131.258911	5.067936
315.448486	942.678711	4555.351563	1125.686157	5.065708
315.817596	947.879883	4429.110840	1123.382813	5.041404
316.186707	949.143005	4330.585449	1121.599487	5.100086
316.555786	949.365784	4235.923828	1117.884399	5.127511
316.924866	949.440186	4177.967773	1107.333618	4.890571
317.293884	946.616699	4171.131836	1105.773193	4.935827
317.662872	944.090393	4200.704102	1099.828979	4.782225
318.031830	949.291565	4228.864746	1095.296387	4.451946
318.400757	947.136719	4263.341309	1092.250000	4.375885
318.769684	948.920105	4288.604492	1098.417114	4.476381
319.138550	945.502136	4308.071777	1101.389282	4.635953
319.507416	949.811707	4268.319824	1105.252930	4.684070
319.876190	946.319519	4207.688965	1104.807129	4.859542
320.244995	948.697205	4145.051270	1109.636841	5.035100
320.613770	944.239014	4106.265625	1108.448120	5.193160
320.982483	951.149170	4128.036133	1110.379883	5.012162
321.351166	944.313293	4168.977051	1107.630493	5.064627
321.719818	943.273010	4238.672852	1105.995850	4.937879
322.088440	939.483582	4345.000488	1108.819458	4.972399
322.457062	946.319519	4526.298828	1117.661499	4.786117
322.825623	953.452637	4688.204590	1125.314697	4.601699
323.194183	950.926270	4807.237793	1135.419922	4.784200
323.562653	948.325684	4865.639648	1137.649048	4.832989
323.931183	941.638367	4896.549316	1142.255737	5.072614
324.299591	946.096497	4864.450684	1135.122681	4.824122
324.668060	941.266907	4803.076172	1132.744995	4.958248
325.036407	946.616699	4715.473633	1124.794556	4.727636
325.404755	944.759094	4634.112305	1118.627563	4.712708
325.773102	952.709473	4552.973633	1111.717285	4.416560
326.141388	946.096497	4493.828613	1110.751465	4.641133
326.509674	941.638367	4417.816406	1105.995972	4.728113
326.877899	937.180176	4319.662598	1101.017700	4.843707
327.246124	940.598145	4250.561035	1102.652344	4.895952
327.614288	948.920105	4231.094238	1108.522339	4.862699
327.982422	947.062500	4242.537109	1114.763794	5.088836
328.350525	947.136780	4247.664063	1120.782349	5.261146
328.718628	939.186340	4262.152832	1117.884399	5.377666
329.086700	939.409241	4317.879395	1115.432495	5.210147
329.454712	945.725037	4383.637207	1112.311646	4.845575
329.822693	956.721863	4419.451660	1123.828613	4.825868
330.190674	958.728027	4453.110840	1124.943237	4.756640
330.558563	946.319519	4492.714355	1119.444824	4.881727
330.926483	947.062500	4585.963867	1114.466431	4.600398
331.294312	946.393799	4681.070801	1126.652222	4.826613
331.662231	952.338074	4791.336426	1135.196899	4.763191
332.029999	946.096619	4880.945801	1141.735718	4.971960
332.397766	944.759094	4969.589355	1139.580933	4.840498
332.765503	939.409363	5005.699707	1144.484863	5.043307
333.133240	942.752930	5024.201660	1141.141235	4.860733
333.500916	941.043945	4995.594727	1142.627197	4.971778
333.868561	951.372009	4994.034668	1140.843872	4.686809
334.236176	946.690979	4963.125000	1138.317749	4.771067
334.603790	954.789856	4949.973145	1139.432251	4.621625
334.971344	953.303894	4921.217773	1135.791382	4.599079
335.338867	950.628906	4915.645020	1140.918335	4.799210
335.706360	943.644531	4890.605469	1133.413696	4.807982
336.073853	944.387512	4904.128418	1126.354980	4.595438
336.441284	940.152344	4920.251953	1125.389038	4.654072
336.808655	932.647766	4952.351074	1132.076294	4.961275
337.176086	926.852234	4985.489746	1137.426147	5.188291
337.543396	934.208191	5012.164063	1138.466309	5.008836
337.910706	943.421692	5028.362305	1138.540527	4.776540
338.277954	944.313293	5015.879395	1140.546753	4.819606
338.645264	938.591980	4979.768066	1135.865601	4.881589
339.012421	940.969543	4918.468262	1126.726440	4.670194
339.379669	940.821045	4836.810059	1126.206421	4.758365
339.746796	940.077942	4750.023926	1122.565552	4.789769
340.113953	939.706543	4709.603516	1121.896851	4.832766
340.481018	945.873718	4698.458008	1122.862671	4.716455
340.848114	956.573242	4698.681152	1122.788452	4.441753
341.215118	952.412292	4725.875977	1129.549927	4.694298
341.582153	951.743652	4835.472656	1134.379639	4.702593
341.949066	950.629089	5028.361816	1140.843872	4.664719
342.316010	955.235840	5248.595703	1150.354614	4.544664
342.682922	948.845764	5487.775879	1169.078979	4.852095
343.049835	946.245117	5788.182129	1185.425659	4.939770
343.416656	948.622864	6105.306152	1203.406860	4.940850
343.783478	950.703308	6354.071777	1202.143799	4.653402
344.150269	949.365784	6494.131348	1218.416016	4.852328
344.516998	942.084167	6508.248535	1220.719360	5.005874
344.883728	936.957214	6431.939941	1221.388062	5.176192
345.250427	938.814880	6294.035156	1206.379028	4.996324
345.617065	941.489746	6153.974609	1191.072632	4.788175
345.983704	952.337952	6034.941406	1182.156372	4.521667
346.350281	954.344238	5908.478027	1182.156250	4.598423
346.716827	954.567078	5764.553223	1182.304932	4.734688
347.083405	952.858093	5652.653809	1179.927246	4.831469
347.449860	947.434021	5579.911621	1182.156250	5.066883
347.816376	947.211121	5558.140625	1179.407104	5.035774
348.182770	938.963562	5562.004395	1184.533936	5.311880
348.549194	942.084290	5605.768066	1180.001465	5.101486
348.915558	939.260742	5680.220215	1182.899292	5.139014
349.281921	941.935547	5740.554199	1186.837402	5.103590
349.648193	944.090332	5793.160156	1181.859131	4.903390
350.014526	949.142883	5824.590332	1190.923950	4.959157
350.380737	953.972595	5859.884277	1186.688721	4.743586
350.746948	955.384277	5895.549316	1193.598877	4.821997
351.113159	954.938477	5965.988281	1194.787720	4.786407
351.479309	949.068665	6017.554688	1195.976563	4.871433
351.845428	946.913879	6120.611816	1200.063354	4.893009
352.211517	945.650696	6239.347656	1199.245850	4.790512
352.577576	941.341125	6395.606934	1207.493530	4.879711
352.943604	941.935547	6534.924316	1210.019775	4.793220
353.309601	940.003723	6676.099121	1217.375854	4.835557
353.675537	947.062500	6845.063965	1218.564697	4.603292
354.041473	944.016052	7004.963379	1224.508911	4.627872
354.407379	940.152344	7114.039551	1233.870972	4.757434
354.773254	943.718811	7263.610840	1251.555054	4.870910
355.139038	943.347412	7453.751465	1264.260742	4.929238
355.504913	952.560852	7736.993652	1272.359741	4.713716
355.870636	952.412292	8008.125000	1271.839600	4.527215
356.236389	947.508301	8272.122070	1281.870483	4.564912
356.602081	944.164734	8528.095703	1293.610352	4.607711
356.967804	936.808777	8681.752930	1306.019043	4.767113
357.333405	944.981995	8781.690430	1316.569946	4.741633
357.699036	942.529968	8778.495117	1308.248169	4.667175
358.064606	949.514465	8757.020508	1316.198364	4.696556
358.430176	946.170837	8710.506836	1315.455322	4.756163
358.795654	951.743469	8745.280273	1326.452148	4.807941
359.161163	946.616699	8907.781250	1323.034180	4.728171
359.526581	955.235779	9244.223633	1340.049561	4.642470
359.892029	956.870422	9737.148438	1365.312500	4.651813
360.257416	960.511230	10313.737305	1391.169922	4.604386
360.622772	953.006653	10798.042969	1410.265625	4.644564
360.988098	953.378235	11146.746094	1417.844360	4.556552
361.353394	955.607239	11263.327148	1429.510132	4.597553
361.718658	954.715637	11145.260742	1431.664673	4.680309
362.083893	947.359619	10737.783203	1420.147949	4.829090
362.449097	940.003662	10146.184570	1390.352539	4.891810
362.814209	938.591980	9479.021484	1348.965820	4.805072
363.179382	942.158508	8838.532227	1323.034180	4.823425
363.544434	942.307129	8367.155273	1305.127197	4.886566
363.909546	942.678711	8073.436035	1287.740356	4.839060
364.274536	942.530090	7918.143066	1275.034790	4.766674
364.639587	940.746765	7791.011230	1273.994507	4.864743
365.004517	939.855164	7702.442871	1270.353638	4.887160
365.369507	934.059509	7632.672363	1269.164795	5.002607
365.734344	940.821045	7603.620605	1268.198853	4.913517
366.099274	942.381348	7603.100098	1275.629150	5.003181
366.464081	943.867493	7588.610840	1274.143066	4.970479
366.828918	942.232727	7549.750488	1264.409302	4.875909
367.193665	953.006653	7458.507324	1253.264038	4.615438
367.558411	959.099548	7378.929199	1248.434448	4.506894
367.923126	957.464844	7281.443848	1246.428223	4.569329
368.287781	949.365906	7236.193359	1244.942261	4.701519
368.652435	944.907715	7197.927734	1244.793579	4.795856
369.017059	943.273132	7211.228027	1237.883423	4.700262
369.381653	940.598145	7239.166016	1247.542725	4.873244
369.746185	945.279297	7286.645996	1248.583008	4.782939
370.110687	943.495911	7381.604004	1258.019409	4.885341
370.475220	941.564148	7482.284668	1255.121582	4.793928
370.839661	938.368958	7572.710938	1251.406372	4.718440
371.204041	942.381348	7608.970215	1257.796387	4.731281
371.568451	940.598145	7596.784668	1259.133911	4.785560
371.932770	935.842773	7578.208984	1268.124512	5.002460
372.297150	936.288635	7532.884277	1268.718872	5.039421
372.661377	948.102783	7517.652344	1273.400024	4.951591
373.025696	949.068665	7539.273926	1268.719116	4.850387
373.389862	946.765198	7612.388184	1267.381592	4.809999
373.754059	940.820984	7737.439453	1271.468140	4.864877
374.118225	940.523743	7880.472656	1282.093384	4.921789
374.482361	938.071838	8051.591797	1285.139771	4.878990
374.846436	940.226624	8258.375977	1293.833374	4.831915
375.210510	943.570313	8544.664063	1299.628784	4.684306
375.574524	945.947937	8857.776367	1322.439819	4.758595
375.938538	944.164551	9156.471680	1331.653442	4.718393
376.302460	944.313232	9400.408203	1352.309570	4.824879
376.666412	944.164734	9567.366211	1354.910156	4.763259
377.030304	939.483643	9577.843750	1361.523071	4.885643
377.394196	933.613770	9467.429688	1356.247681	4.952461
377.757996	933.836609	9245.413086	1347.777100	4.980289
378.121796	933.093567	8973.540039	1331.133179	4.950467
378.485565	942.678711	8685.393555	1305.721680	4.688833
378.849304	940.003723	8439.749023	1296.656860	4.755537
379.212982	941.118347	8288.988281	1282.762329	4.649565
379.576630	944.536194	8192.618164	1287.591919	4.733055
379.940277	950.108887	8175.527832	1282.539307	4.600846
380.303864	950.331787	8154.277344	1290.118042	4.716669
380.667450	946.913818	8180.208984	1289.895142	4.741703
381.030945	949.217285	8202.351563	1295.839355	4.778928
381.394501	948.697083	8255.032227	1297.697021	4.776676
381.757935	944.907715	8310.982422	1305.201538	4.891259
382.121399	936.808777	8370.721680	1307.950806	4.992553
382.484741	930.790222	8517.692383	1319.319092	5.121047
382.848145	925.663269	8667.709961	1318.798950	5.077929
383.211487	931.310364	8822.185547	1324.074463	4.977447
383.574768	942.381409	8907.782227	1326.897949	4.827334
383.938019	948.251282	8948.128906	1334.402588	4.826965
384.301270	940.598145	8967.892578	1324.743286	4.785487
384.664459	935.916992	8980.747070	1317.312866	4.740881
385.027649	938.666260	9009.502930	1314.860962	4.661161
385.390778	941.118225	9095.916992	1333.510864	4.811800
385.753876	945.576355	9201.128906	1344.879272	4.836780
386.116943	939.186340	9310.427734	1352.606812	4.938581
386.479980	948.622803	9359.838867	1340.346802	4.657163
386.842987	947.582581	9389.783203	1334.996948	4.589021
387.205994	943.347351	9392.606445	1331.801880	4.597498
387.568909	936.065674	9378.934570	1338.340698	4.764672
387.931793	941.638367	9323.653320	1340.123901	4.754055
388.294678	951.372009	9272.979492	1339.009399	4.658203
388.657471	955.458679	9272.534180	1338.192017	4.601778
389.020294	949.811707	9338.885742	1346.291016	4.726139
389.383057	948.622864	9529.843750	1355.801636	4.744998
389.745819	944.536316	9737.222656	1370.736694	4.847215
390.108521	945.427917	9988.514648	1377.572632	4.778730
390.471191	940.300964	10243.075195	1392.358765	4.859387
390.833801	942.604309	10471.556641	1396.965454	4.768217
391.196442	941.341125	10614.812500	1405.733032	4.800675
391.558960	944.684753	10648.917969	1404.544434	4.738753
391.921509	947.805420	10592.448242	1399.343140	4.681746
392.284027	946.468079	10546.899414	1389.237915	4.611979
392.646484	945.650696	10492.510742	1393.399048	4.690006
393.008911	939.260742	10477.500977	1401.200806	4.843032
393.371307	944.981995	10477.426758	1404.618652	4.821813
393.733673	943.718933	10461.674805	1398.154297	4.774506
394.096008	946.393799	10400.226563	1399.491821	4.792744
394.458344	942.975891	10280.004883	1397.336914	4.866227
394.820587	949.885986	10041.566406	1398.451538	4.933802
395.182831	949.514465	9812.491211	1389.535156	4.964705
395.545013	945.947937	9551.838867	1382.625000	5.074165
395.907196	944.610352	9423.219727	1371.999634	5.040794
396.269287	950.777588	9333.611328	1360.482788	4.887431
396.631409	946.542297	9296.311523	1357.436401	4.921023
396.993469	942.158508	9239.247070	1353.275513	4.954955
397.355530	938.963440	9228.472656	1359.219727	5.069737
397.717499	946.765320	9283.678711	1376.086426	5.149641
398.079468	944.016052	9333.684570	1380.172974	5.198738
398.441376	941.935547	9338.514648	1391.912964	5.359056
398.803284	940.523865	9262.725586	1384.854126	5.339095
399.165131	946.839600	9223.493164	1397.411133	5.443885
399.526978	945.279236	9193.401367	1389.237915	5.382543
399.888763	950.554688	9201.054688	1387.528931	5.296337
400.250519	954.641418	9189.537109	1374.080078	5.093430
400.612244	957.093445	9229.883789	1387.974731	5.208416
400.973938	954.344238	9325.437500	1393.621704	5.247551
401.335602	950.703308	9437.485352	1410.414063	5.416785
401.697205	950.926270	9618.264648	1410.339966	5.300517
402.058807	952.115051	9773.185547	1425.348999	5.364813
402.420349	948.102722	10014.966797	1446.451050	5.496369
402.781860	944.536133	10199.832031	1466.587036	5.640564
403.143341	935.396973	10397.551758	1490.363892	5.865122
403.504822	935.174133	10601.883789	1503.961304	5.883979
403.866241	937.403137	10754.798828	1524.246094	5.977583
404.227631	944.759094	10866.475586	1534.128296	5.940194
404.588959	951.000488	10870.934570	1541.187134	5.949502
404.950287	948.622803	10832.370117	1535.614380	5.938958
405.311554	943.718811	10743.653320	1529.744263	5.979891
405.672821	944.090332	10606.192383	1524.246094	6.004447
406.034027	946.765198	10480.398438	1519.862305	6.011319
406.395203	945.873535	10290.628906	1509.979980	6.036610
406.756348	946.468018	10178.135742	1504.853027	6.048582
407.117493	945.353516	10099.522461	1513.249146	6.203683
407.478516	948.028503	10157.256836	1515.181030	6.158524
407.839600	944.090332	10241.218750	1526.252319	6.261739
408.200592	942.455750	10379.643555	1531.676270	6.243603
408.561554	948.399902	10513.241211	1555.824585	6.350598
408.922485	950.406067	10646.836914	1567.416016	6.363269
409.283417	953.972656	10763.788086	1572.914429	6.309413
409.644257	950.851990	10871.899414	1573.360229	6.274622
410.005096	944.387695	10960.096680	1572.988647	6.276150
410.365906	936.437256	10962.252930	1576.777954	6.386919
410.726715	935.322693	10912.097656	1585.099976	6.512899
411.087433	943.793152	10807.850586	1592.530273	6.576777
411.448120	953.155273	10724.112305	1596.096680	6.580127
411.808807	951.446350	10684.359375	1595.279419	6.615009
412.169434	948.399963	10650.106445	1591.564453	6.629396
412.530029	947.656921	10696.843750	1601.743774	6.709143
412.890564	950.108887	10788.979492	1605.458984	6.660826
413.251099	951.892090	10949.101563	1618.461914	6.667559
413.611572	955.755859	11111.378906	1627.824097	6.617696
413.972076	961.551514	11242.670898	1639.712524	6.596179
414.332489	960.659912	11372.329102	1647.588501	6.597680
414.692871	957.019043	11589.812500	1664.306641	6.651946
415.053223	956.350281	11770.813477	1675.749390	6.652194
415.413574	954.864258	12042.762695	1698.411499	6.705935
415.773834	949.663086	12268.418945	1714.683716	6.758876
416.134094	946.616638	12584.875000	1731.996460	6.748259
416.494263	945.353516	12864.995117	1745.147949	6.709887
416.854462	946.245117	13202.032227	1765.209595	6.682268
417.214630	942.232727	13621.694336	1799.017456	6.757264
417.574738	937.031555	14046.929688	1832.973755	6.834090
417.934784	946.096497	14532.793945	1860.168579	6.727699
418.294861	951.966492	15073.942383	1887.289063	6.623171
418.654846	958.728027	15709.229492	1925.257813	6.552521
419.014832	951.817871	16328.617188	1966.495728	6.598759
419.374756	944.164734	16987.978516	2010.260132	6.644901
419.734680	939.112122	17636.716797	2063.238037	6.732259
420.094543	941.935547	18214.494141	2103.510010	6.724970
420.454376	949.960266	18557.699219	2134.345703	6.726506
420.814148	951.817810	18772.732422	2135.608887	6.642706
421.173920	948.845703	18903.357422	2144.599365	6.659906
421.533691	950.108887	19041.632813	2149.949219	6.632058
421.893341	952.932434	19078.039063	2154.778564	6.630836
422.253021	950.108887	19040.517578	2156.190430	6.666967
422.612640	941.118225	18971.119141	2152.698242	6.719801
422.972260	938.666199	18970.525391	2150.543701	6.720757
423.331757	944.387512	19038.435547	2140.735840	6.611834
423.691315	947.062500	19210.595703	2155.373291	6.615975
424.050781	947.508301	19255.919922	2159.757324	6.621268
424.410248	945.056335	19130.052734	2162.283447	6.693579
424.769653	950.034607	18777.560547	2134.122803	6.641910
425.128998	951.817871	18347.939453	2115.769775	6.690870
425.488373	951.223450	17864.529297	2088.500732	6.724157
425.847656	943.273010	17420.867188	2065.615723	6.811327
426.206940	941.118347	16987.830078	2032.699585	6.802523
426.566193	939.334961	16589.865234	2003.870117	6.801911
426.925385	938.814758	16157.127930	1976.155273	6.816396
427.284576	943.941711	15738.208008	1948.291626	6.788778
427.643677	943.867432	15418.260742	1926.075195	6.785830
428.002777	948.102722	15202.262695	1910.545898	6.752016
428.361847	946.170898	15020.145508	1898.880249	6.769299
428.720856	955.012878	14801.250000	1892.936035	6.773849
429.079865	949.365906	14609.624023	1891.078491	6.893813
429.438812	945.502136	14534.800781	1888.700806	6.940746
429.797760	935.694153	14506.714844	1877.629761	6.940787
430.156616	943.198730	14431.445313	1860.465820	6.800492
430.515503	947.731262	14378.020508	1856.304810	6.765108
430.874268	955.161438	14377.129883	1847.834351	6.650835
431.233093	957.984924	14494.750977	1864.403931	6.695979
431.591827	949.217285	14630.055664	1875.920898	6.773735
431.950562	941.861328	14757.708008	1899.623413	6.932344
432.309204	939.632324	14874.289063	1893.233276	6.843376
432.667877	944.610535	15062.795898	1904.378540	6.798098
433.026459	945.353516	15205.012695	1905.121704	6.730653
433.385010	943.570251	15323.079102	1917.901978	6.775835
433.743561	952.115051	15314.980469	1907.350952	6.650733
434.102051	953.155334	15313.493164	1901.035156	6.600679
434.460510	955.978821	15321.147461	1901.258179	6.580357
434.818939	953.898438	15311.414063	1908.762695	6.650623
435.177338	957.539246	15312.304688	1911.809082	6.647756
435.535675	948.771484	15275.078125	1912.700684	6.728386
435.894012	945.576477	15270.992188	1915.747070	6.772373
436.252289	940.895325	15432.377930	1932.390747	6.841918
436.610535	948.399902	15547.249023	1947.177124	6.841479
436.968719	945.650696	15819.941406	1953.864258	6.778229
437.326935	943.941711	16064.992188	1969.987915	6.785548
437.685028	934.951111	16374.315430	1989.678223	6.831415
438.043152	941.564026	16605.841797	2010.111450	6.821556
438.401215	943.793152	16905.578125	2032.625366	6.821495
438.759277	951.669250	17293.958984	2037.529297	6.644479
439.117249	943.421692	17832.357422	2068.810791	6.663470
439.475250	944.759094	18226.085938	2095.782471	6.660504
439.833130	942.158508	18650.876953	2131.596436	6.716680
440.191071	937.997559	18815.529297	2150.989502	6.785008
440.548889	935.545593	18907.072266	2148.017334	6.746626
440.906708	936.065674	18778.156250	2148.760254	6.796819
441.264496	946.913879	18588.755859	2127.286865	6.690759
441.622223	944.313293	18341.105469	2107.968262	6.688905
441.979950	940.078064	18066.037109	2085.826172	6.690125
442.337616	930.567322	17807.687500	2076.760986	6.791405
442.695251	934.282410	17552.013672	2072.377197	6.848677
443.052887	941.564026	17462.330078	2063.089355	6.788580
443.410461	942.678650	17595.478516	2062.123291	6.722260
443.768005	943.421692	17828.568359	2070.891113	6.677286
444.125458	943.198730	18066.486328	2087.014893	6.679887
444.482941	944.536194	18389.404297	2117.404541	6.723287
444.840393	950.183289	18951.056641	2154.555908	6.690634
445.197754	953.155273	19488.339844	2190.518555	6.675754
445.555084	951.594910	19890.539063	2220.982666	6.702527
445.912415	947.954102	20109.583984	2242.678955	6.756862
446.269714	943.495911	20203.875000	2248.400391	6.775072
446.626953	943.273010	20201.943359	2249.514893	6.782618
446.984161	941.489807	19997.611328	2230.716553	6.765421
447.341309	940.078064	19771.435547	2214.072510	6.765282
447.698456	947.656921	19468.353516	2188.438232	6.699430
448.055542	955.310059	19274.273438	2172.537109	6.644629
448.412598	959.248108	18973.720703	2157.230713	6.650112
448.769653	948.399902	18602.578125	2122.234375	6.649046
449.126617	942.158508	18143.462891	2093.479248	6.693218
449.483582	941.935547	17794.089844	2071.931396	6.705349
449.840515	945.427795	17533.138672	2073.120361	6.798362
450.197388	944.684753	17330.664063	2071.708496	6.877976
450.554230	942.158508	17213.562500	2066.804443	6.911794
450.911041	942.752930	17150.183594	2050.011963	6.831799
451.267822	939.929382	17229.833984	2046.296875	6.791737
451.624573	938.294739	17250.712891	2038.346680	6.743648
451.981262	944.907715	17219.431641	2037.603516	6.714149
452.337921	945.502136	17049.576172	2023.114380	6.691551
452.694580	943.793152	16745.232422	2003.572754	6.706854
453.051147	946.542297	16515.117188	1983.733887	6.662085
453.407715	943.644531	16148.730469	1960.477173	6.687451
453.764221	952.486572	16046.489258	1959.882813	6.674149
454.120728	956.127441	15709.453125	1940.712769	6.673650
454.477142	959.619690	15639.237305	1942.793091	6.697541
454.833557	957.464905	15507.051758	1927.338257	6.665986
455.189911	943.867432	15551.187500	1941.307129	6.828355
455.546265	941.489746	15635.520508	1942.050293	6.809299
455.902557	936.511475	15721.711914	1955.201782	6.889933
456.258820	941.341125	15964.385742	1962.483398	6.797173
456.615051	948.548584	16227.046875	1978.755859	6.742857
456.971252	956.127441	16526.560547	2001.120972	6.711397
457.327393	948.994324	17047.943359	2045.108032	6.808604
457.683502	945.724915	17715.923828	2091.844482	6.834264
458.039612	941.341125	18654.367188	2153.218506	6.841731
458.395630	935.991394	19578.619141	2208.573975	6.826198
458.751648	940.375244	20374.699219	2260.957275	6.795101
459.107605	940.152344	21103.013672	2303.161377	6.759998
459.463562	953.972656	21389.970703	2321.514404	6.691828
459.819458	951.297668	21333.054688	2313.712646	6.684483
460.175323	950.703369	20759.437500	2282.951172	6.725557
460.531158	947.136719	20016.261719	2235.322998	6.755351
460.886932	944.684753	19235.341797	2187.917969	6.797094
461.242676	946.096497	18473.439453	2125.726563	6.730227
461.598419	943.347351	17931.623047	2088.352295	6.739971
461.954102	935.099792	17338.019531	2056.922363	6.839163
462.309723	928.783997	16953.353516	2039.758179	6.932942
462.665344	937.700378	16577.681641	2019.325073	6.915768
463.020905	944.238953	16404.853516	2008.848267	6.885945
463.376373	958.802246	16325.421875	1999.337524	6.771400
463.731873	953.378235	16316.581055	1997.405762	6.795638
464.087341	959.173828	16363.539063	1996.068359	6.731174
464.442749	949.811707	16507.240234	2006.396362	6.791512
464.798126	945.204895	16617.876953	2015.312866	6.827859
465.153503	941.564026	16815.300781	2025.417969	6.827971
465.508820	934.282410	16955.064453	2045.331055	6.935046
465.864105	943.867432	17100.029297	2050.309326	6.848420
466.219330	945.279114	17348.794922	2059.745850	6.794073
466.574524	950.851868	17400.062500	2058.928467	6.736351
466.929657	946.393799	17329.474609	2053.652832	6.758552
467.284790	943.198792	17106.789063	2046.371094	6.825046
467.639893	946.691101	16852.228516	2023.337280	6.769003
467.994934	944.684814	16641.357422	2009.665649	6.784755
468.349945	949.068665	16442.968750	1991.312988	6.726804
468.704926	942.604309	16296.073242	1982.173828	6.770910
469.059875	945.353516	16149.844727	1967.387695	6.721923
469.414764	947.731201	16040.471680	1954.384766	6.669786
469.769653	944.536133	16035.121094	1960.551758	6.732778
470.124451	944.981934	16119.678711	1974.520508	6.784574
470.479248	941.043945	16179.937500	1990.644165	6.887640
470.834015	947.805481	16238.933594	1996.291138	6.856823
471.188721	954.864258	16467.638672	2005.504883	6.772745
471.543365	963.408997	16763.808594	2017.467407	6.671087
471.898010	967.570068	17022.753906	2022.074219	6.567998
472.252625	959.619690	17248.931641	2045.182495	6.664264
472.607178	951.520691	17467.976563	2064.872803	6.740866
472.961700	949.217285	17573.634766	2079.881592	6.801227
473.316193	952.412292	17659.230469	2077.875488	6.736550
473.670654	955.607239	17621.189453	2074.829346	6.715770
474.025055	954.492676	17713.917969	2076.612549	6.695456
474.379456	950.480286	17710.277344	2081.293457	6.747178
474.733795	941.712646	17823.810547	2090.209717	6.803047
475.088104	936.362854	18084.539063	2110.420166	6.846544
475.442383	931.161621	18426.853516	2128.178467	6.841781
475.796570	941.043945	18730.750000	2139.621338	6.737477
476.150787	941.489807	19141.048828	2168.970703	6.744565
476.504944	942.158508	19518.582031	2204.859131	6.797329
476.859070	928.783997	19907.037109	2238.220947	6.899671
477.213135	932.201904	20156.619141	2254.716064	6.879345
477.567200	940.077942	20435.998047	2266.678955	6.804506
477.921173	952.040710	20737.517578	2277.675537	6.700039
478.275146	953.452454	20961.021484	2288.003662	6.670232
478.629089	953.303894	21223.978516	2303.086914	6.658797
478.983002	950.331787	21628.705078	2346.851318	6.753527
479.336823	949.440186	22210.494141	2386.157471	6.757507
479.690643	948.177063	22915.181641	2441.215820	6.796734
480.044403	942.901550	23770.927734	2485.426025	6.757152
480.398163	940.969727	24919.794922	2571.988770	6.801914
480.751862	938.963562	26546.431641	2680.990967	6.802810
481.105499	933.910889	28749.281250	2835.614502	6.836880
481.459137	933.687988	31930.033203	3034.374268	6.777206
481.812744	936.660095	36158.304688	3318.285156	6.761822
482.166290	938.963440	41197.144531	3669.588623	6.782784
482.519806	945.799316	46278.261719	4051.727539	6.851444
482.873291	945.130615	50529.937500	4383.488770	6.934298
483.226715	943.347351	53365.996094	4614.867676	7.003691
483.580139	938.220520	54440.343750	4721.714844	7.071671
483.933502	937.105957	53948.011719	4651.573730	7.006988
484.286804	945.279297	52114.074219	4477.778809	6.903620
484.640106	943.941711	49335.593750	4223.440918	6.776994
484.993347	942.084167	46346.988281	4017.845703	6.774074
485.346558	942.678650	44022.433594	3851.778564	6.752824
485.699738	941.489746	42977.363281	3776.955811	6.745348
486.052887	941.192566	43111.777344	3777.847412	6.726619
486.405975	941.341248	44054.082031	3841.078857	6.725941
486.759064	941.266846	45141.500000	3912.781250	6.722847
487.112061	940.226563	45756.800781	3944.880127	6.704336
487.464996	937.700195	45399.113281	3923.109619	6.714607
487.817963	938.443359	44189.984375	3841.748047	6.712605
488.170868	938.517639	42387.324219	3728.436523	6.731000
488.523743	940.300964	40328.992188	3592.982422	6.734627
488.876587	943.570313	38396.824219	3452.624268	6.699162
489.229401	946.022278	37088.503906	3363.684326	6.689253
489.582153	941.341125	36793.074219	3336.340820	6.680290
489.934845	942.901550	37403.617188	3394.371094	6.723591
490.287537	949.291504	38572.324219	3468.599609	6.696186
490.640198	954.121277	39794.753906	3558.357422	6.704927
490.992798	948.177002	40534.214844	3599.743896	6.698237
491.345337	935.025452	40517.050781	3587.335205	6.700794
491.697876	933.985168	39388.246094	3500.624268	6.674525
492.050354	938.591980	37463.433594	3354.693359	6.614954
492.402832	950.331787	34790.765625	3186.323486	6.607456
492.755219	949.588806	32058.802734	2999.600830	6.589726
493.107605	937.774658	29518.984375	2842.598877	6.664603
493.459930	932.350586	27653.617188	2702.538574	6.624641
493.812225	928.412598	26263.634766	2629.201660	6.713140
494.164490	937.923340	25478.478516	2583.505615	6.705563
494.516724	940.449646	25036.671875	2574.217529	6.780182
494.868896	952.263672	25048.041016	2572.211670	6.722954
495.221039	949.142883	25231.197266	2588.409668	6.750939
495.573120	944.090393	25424.384766	2603.864502	6.780042
495.925201	936.808655	25606.869141	2606.242188	6.767043
496.277222	945.725098	25755.923828	2613.598145	6.722530
496.629211	945.947937	25813.062500	2610.403320	6.693399
496.981140	944.981934	25770.041016	2608.397217	6.700549
497.333069	948.771423	25524.468750	2592.570557	6.688718
497.684967	953.155273	25218.789063	2563.741211	6.637313
498.036804	955.161438	24710.259766	2532.459717	6.639831
498.388580	936.734375	24182.416016	2504.744873	6.745384
498.740326	934.951172	23691.570313	2485.574707	6.813945
499.092072	936.288574	23206.892578	2464.472656	6.861889
499.443756	943.198730	22792.062500	2428.658936	6.798799
499.795410	946.096497	22417.578125	2402.355469	6.782294
500.147003	942.232849	22174.681641	2367.358887	6.712019
500.498566	936.957336	21946.794922	2349.897705	6.725137
500.850098	937.328796	21734.662109	2329.910400	6.695962
501.201599	941.192566	21592.816406	2334.368408	6.746084
501.553009	958.579407	21480.322266	2323.891846	6.653005
501.904449	956.944763	21462.935547	2331.396484	6.702683
502.255859	958.133606	21477.201172	2325.898193	6.665823
502.607178	951.223389	21625.808594	2332.213867	6.679652
502.958405	946.096497	21762.228516	2322.405762	6.611743
503.309692	937.997559	21839.427734	2335.037109	6.683942
503.660919	931.830383	21891.142578	2346.628174	6.750211
504.012115	935.025391	21826.054688	2359.036865	6.816378
504.363251	942.009827	21817.804688	2348.040039	6.735218
504.714294	937.180176	21687.478516	2346.479736	6.791708
505.065369	937.477356	21653.001953	2339.495361	6.767958
505.416443	934.579590	21522.748047	2336.671875	6.810185
505.767395	940.078064	21469.994141	2327.161133	6.756399
506.118317	946.096497	21372.285156	2318.022217	6.716504
506.469238	951.223450	21487.455078	2336.449219	6.745277
506.820160	957.836426	21663.031250	2353.167236	6.739037
507.170929	956.424622	21929.037109	2374.640869	6.762230
507.521729	955.310120	22177.056641	2382.145264	6.723458
507.872498	950.629089	22449.822266	2389.203857	6.691296
508.223236	946.765320	22777.869141	2409.934326	6.702222
508.573883	944.461914	23024.705078	2417.364990	6.670683
508.924500	952.486633	23268.937500	2441.810303	6.673658
509.275116	951.223450	23389.900391	2452.510010	6.690620
509.625702	954.121277	23507.001953	2482.528320	6.776992
509.976196	947.136780	23604.562500	2489.661133	6.808030
510.326660	947.731201	23788.982422	2503.778564	6.812443
510.677124	945.130615	24038.712891	2505.338867	6.756025
511.027557	941.712708	24202.921875	2519.382080	6.782405
511.377869	946.616699	24337.037109	2524.955078	6.747798
511.728180	951.892090	24410.748047	2525.772217	6.709109
512.078430	956.944763	24443.884766	2522.354248	6.665021
512.428650	957.019043	24360.072266	2520.571289	6.680975
512.778931	957.762024	24164.732422	2509.128418	6.684916
513.129028	957.390564	23929.787109	2501.475342	6.721478
513.479126	963.260437	23780.287109	2479.184570	6.643828
513.829285	962.517395	23662.443359	2466.107422	6.623766
514.179382	961.477234	23655.384766	2447.457275	6.547925
514.529297	952.486572	23648.921875	2457.562744	6.631333
514.879272	949.068665	23833.044922	2464.769775	6.623417
515.229187	954.418457	23983.281250	2491.964844	6.676606
515.579163	957.539124	24365.794922	2511.580566	6.638861
515.928955	953.898376	24819.412109	2554.230469	6.705626
516.278748	946.839539	25540.373047	2588.632568	6.675710
516.628540	944.313232	26317.654297	2636.632080	6.669672
516.978333	948.919922	27179.712891	2690.575684	6.639737
517.327942	948.697021	28061.312500	2762.500732	6.689888
517.677612	946.170837	28823.140625	2813.323975	6.697834
518.027222	947.285400	29289.833984	2838.364014	6.672225
518.376831	947.805603	29420.681641	2835.317627	6.629158
518.726379	943.421692	29180.312500	2820.977295	6.649301
519.075867	939.855164	28667.552734	2794.302490	6.688068
519.425293	939.409363	27982.775391	2748.234375	6.688609
519.774658	948.548523	27260.849609	2702.687012	6.666610
520.124084	951.892090	26661.154297	2657.882568	6.635704
520.473389	949.291504	26146.531250	2627.344238	6.659669
520.822693	947.211121	25780.000000	2600.075195	6.655974
521.171997	938.294739	25503.294922	2578.750000	6.678019
521.521240	940.672546	25393.771484	2574.514893	6.681534
521.870361	932.945007	25488.062500	2590.341553	6.749699
522.219482	939.112122	25747.601563	2617.239014	6.764325
522.568604	939.632263	26096.673828	2645.399658	6.780477
522.917664	946.319519	26545.166016	2667.913330	6.725279
523.266724	945.353516	27228.900391	2706.179443	6.699347
523.615662	950.331848	28112.359375	2757.076904	6.651731
523.964600	949.143066	29256.697266	2838.512695	6.674436
524.313538	951.520691	30470.656250	2923.663330	6.680896
524.662354	948.102722	31831.732422	3010.449219	6.677798
525.011169	948.251282	33104.984375	3091.587646	6.665280
525.359985	951.817871	34405.503906	3184.688721	6.674513
525.708740	955.978821	35728.613281	3278.681885	6.679688
526.057434	952.412292	37323.964844	3381.665283	6.678992
526.406067	952.337952	39398.050781	3518.828125	6.675622
526.754700	951.743591	42226.234375	3720.783203	6.708840
527.103333	955.235840	45508.558594	3983.889404	6.797817
527.451782	953.452454	48916.003906	4241.719238	6.855905
527.800293	950.629089	51457.234375	4455.042480	6.938525
528.148743	944.461853	52970.410156	4564.564453	6.958263
528.497131	935.545593	53012.093750	4575.858887	6.990312
528.845642	930.864441	51889.300781	4453.927734	6.913601
529.193909	934.653870	49550.843750	4252.938965	6.825473
529.542175	937.625977	46297.875000	3990.279297	6.729798
529.890503	943.124451	42734.097656	3741.736328	6.696690
530.238770	944.164734	39507.949219	3514.147217	6.664238
530.586914	943.570313	37240.667969	3374.606689	6.697606
530.934998	939.409363	35974.699219	3286.780518	6.700019
531.283142	938.443420	35896.164063	3296.217529	6.744646
531.631226	940.598145	36582.128906	3327.870361	6.698007
531.979248	939.409241	37805.593750	3410.866455	6.703860
532.327148	938.146179	38992.730469	3481.677002	6.683901
532.675110	934.802551	39865.636719	3531.236572	6.669351
533.023071	935.545593	40028.730469	3540.301758	6.662942
533.370850	940.152344	39415.660156	3490.444580	6.628352
533.718689	939.855164	38149.914063	3416.513428	6.655884
534.066467	947.879822	36562.585938	3306.099609	6.621477
534.414246	949.885986	34993.906250	3211.586670	6.643460
534.761963	948.102722	33734.777344	3117.073486	6.615403
535.109619	939.186340	33093.910156	3063.278320	6.605847
535.457153	934.059570	32803.167969	3041.656250	6.613290
535.804749	937.923279	32773.000000	3050.944092	6.637398
536.152344	940.969727	32645.718750	3052.801514	6.660932
536.499817	939.483582	32295.529297	3025.978271	6.654202
536.847229	947.359680	31663.958984	2990.312744	6.650974
537.194641	948.474182	30816.087891	2942.536377	6.676336
537.542114	957.613464	30017.187500	2893.199219	6.660750
537.889404	943.495911	29360.794922	2841.113281	6.677684
538.236694	944.313293	28962.458984	2814.958740	6.676550
538.583984	940.077942	29088.328125	2826.104248	6.700333
538.931213	951.669189	29883.367188	2887.552490	6.691219
539.278381	949.291504	31361.099609	2986.523438	6.698819
539.625488	948.399902	33340.300781	3119.228271	6.701763
539.972595	938.814941	35715.238281	3275.189453	6.718272
540.319641	938.294739	38063.351563	3419.782471	6.684132
540.666687	940.821106	39880.652344	3534.357666	6.660369
541.013611	948.177002	40975.203125	3602.716064	6.631866
541.360596	947.285339	41114.445313	3623.594971	6.662930
541.707458	941.266846	40525.152344	3587.484131	6.685087
542.054260	935.025452	39168.531250	3495.794922	6.697711
542.401062	933.985168	37541.300781	3390.804688	6.711280
542.747864	937.923279	35574.136719	3255.648438	6.691624
543.094666	935.619873	33633.273438	3119.302734	6.678408
543.441284	942.678650	31767.087891	2982.214111	6.616624
543.787903	947.136780	30317.666016	2887.701172	6.607183
544.134460	955.161438	29079.781250	2814.141357	6.609796
544.481079	948.102722	28238.822266	2758.042969	6.632072
544.827637	946.022217	27636.376953	2720.222656	6.647346
545.174072	941.638367	27362.572266	2711.603516	6.699101
545.520508	942.901550	27264.568359	2715.838623	6.735657
545.866943	938.443420	27214.263672	2715.690186	6.763811
546.213318	947.285400	27107.416016	2700.383789	6.701413
546.559631	953.229675	26766.591797	2673.114990	6.662771
546.905823	951.594910	26269.357422	2638.043701	6.661129
547.252136	944.387512	25521.427734	2584.917236	6.675050
547.598389	931.013123	24622.361328	2526.812744	6.735791
547.944458	931.458984	23647.806641	2462.540771	6.740000
548.290588	938.517761	22724.595703	2402.207031	6.718461
548.636658	949.737488	21853.767578	2349.006348	6.693776
548.982727	956.944763	21149.601563	2296.474365	6.633746
549.328735	954.864258	20608.824219	2261.923584	6.650361
549.674622	949.737366	20209.892578	2237.552002	6.686419
550.020569	940.746765	19945.228516	2231.830811	6.793576
550.366455	932.721985	19752.191406	2214.295410	6.809828
550.712280	934.802551	19740.449219	2207.979736	6.770186
551.058044	938.146179	19829.091797	2209.019775	6.727422
551.403748	944.536133	20020.570313	2222.023193	6.696816
551.749512	940.077942	20206.478516	2229.601807	6.693123
552.095154	933.762207	20323.279297	2240.152832	6.737613
552.440735	926.183350	20394.091797	2244.907959	6.773838
552.786316	937.254456	20343.638672	2245.948242	6.743625
553.131897	942.381348	20159.888672	2224.177734	6.669941
553.477417	955.310059	19839.345703	2203.224365	6.608303
553.822815	953.155273	19450.744141	2180.041748	6.632683
554.168213	954.567078	19094.908203	2162.209229	6.657218
554.513672	943.793213	18781.349609	2144.376221	6.730647
554.859009	933.465149	18501.824219	2123.868896	6.775839
555.204285	932.201965	18284.191406	2101.132080	6.736577
555.549500	934.430969	18056.230469	2096.897217	6.789393
555.894714	938.071838	17921.148438	2091.621826	6.792350
556.239990	937.923279	17789.111328	2095.188232	6.867557
556.585022	940.821045	17725.062500	2088.798096	6.839612
556.930115	943.867432	17634.931641	2076.092285	6.783419
557.275146	943.867432	17502.750000	2058.408203	6.730773
557.620178	941.266846	17419.455078	2029.430054	6.603658
557.965149	945.502136	17331.554688	2025.343384	6.590003
558.310059	949.737305	17275.457031	2029.133179	6.611628
558.654968	949.365906	17187.109375	2031.807983	6.666211
558.999756	944.610535	17210.144531	2033.591187	6.695020
559.344604	941.638367	17270.478516	2035.300171	6.697731
559.689331	946.170837	17314.912109	2048.377441	6.733606
560.033997	944.313293	17280.138672	2048.526123	6.759456
560.378723	945.799316	17316.767578	2049.120361	6.739498
560.723389	942.975830	17349.685547	2049.120361	6.742026
561.067932	945.650696	17430.525391	2045.925415	6.674449
561.412476	941.341125	17413.734375	2041.987305	6.681763
561.757019	940.523743	17409.500000	2039.386597	6.672320
562.101501	941.712708	17354.367188	2039.238159	6.687068
562.445862	945.947998	17267.359375	2032.922485	6.659807
562.790222	943.050110	17195.656250	2030.544922	6.691203
563.134644	947.062439	17156.126953	2026.755493	6.661045
563.478943	951.074768	17238.380859	2036.489136	6.664174
563.823181	953.824036	17366.626953	2039.386719	6.614122
564.167358	947.136780	17567.839844	2052.761475	6.652094
564.511536	942.307129	17866.982422	2074.383301	6.688909
564.855774	943.644592	18200.822266	2104.698975	6.727951
565.199768	948.102722	18592.695313	2133.677002	6.719193
565.543823	954.418457	18868.134766	2145.045166	6.646453
565.887817	957.687744	19097.505859	2152.326904	6.585728
566.231812	956.127441	19116.082031	2150.543701	6.577199
566.575745	954.492676	18985.978516	2152.846924	6.645898
566.919617	947.954102	18766.267578	2141.330078	6.697469
567.263428	947.210999	18525.896484	2123.348877	6.690705
567.607239	940.820984	18327.435547	2102.172607	6.679573
567.950989	945.650696	18099.027344	2083.968262	6.636114
568.294678	947.136780	17954.138672	2083.522705	6.681871
568.638367	949.960266	17808.800781	2070.445313	6.646276
568.981995	940.746765	17763.251953	2067.324707	6.696849
569.325623	941.638367	17754.708984	2065.095703	6.682047
569.669128	938.443359	17908.888672	2077.504150	6.712027
570.012573	947.062500	18117.083984	2089.541260	6.653916
570.356140	945.502136	18470.689453	2098.085938	6.576727
570.699524	951.000488	18773.029297	2121.937256	6.570165
571.042908	952.709473	19083.910156	2147.348633	6.588858
571.386230	954.567078	19249.753906	2165.998535	6.621585
571.729492	948.771423	19344.564453	2169.490479	6.635859
572.072815	951.000488	19327.326172	2168.598877	6.625907
572.416016	942.381348	19192.691406	2161.540283	6.680209
572.759094	947.359680	19036.359375	2155.075928	6.676523
573.102234	941.118347	18884.185547	2134.940186	6.653388
573.445374	949.365906	18716.261719	2113.317871	6.551239
573.788391	947.954102	18539.792969	2097.863037	6.536604
574.131409	944.387512	18413.404297	2091.918945	6.568953
574.474365	933.316406	18327.806641	2088.055176	6.638532
574.817261	932.127625	18293.033203	2089.466797	6.666352
575.160156	927.669434	18135.289063	2094.370850	6.780144
575.502930	934.133789	17941.431641	2090.655518	6.800150
575.845703	933.613708	17622.673828	2063.163818	6.768206
576.188477	944.981995	17317.289063	2032.179321	6.640465
576.531250	947.656921	16996.376953	2009.368530	6.615554
576.873901	955.087158	16633.332031	1992.278809	6.615483
577.216431	951.000549	16290.351563	1973.034546	6.662825
577.559082	947.062500	15942.762695	1948.365845	6.677269
577.901611	936.585754	15631.062500	1921.022583	6.699367
578.244080	940.672424	15331.178711	1892.564819	6.614725
578.586487	941.415466	15097.050781	1875.995117	6.602174
578.928955	973.811523	14948.000000	1887.660645	6.539551
579.271301	968.833191	14784.979492	1878.149902	6.581551
579.613647	970.244934	14586.144531	1867.450195	6.589394
579.955872	946.170837	14415.991211	1841.295776	6.645411
580.298157	953.378174	14272.661133	1841.816040	6.670313
580.640320	957.093262	14192.487305	1835.574585	6.637364
580.982483	955.384460	14112.464844	1828.887207	6.639032
581.324524	953.749756	14060.229492	1821.382690	6.619878
581.666626	955.755920	13982.137695	1813.655151	6.585860
582.008728	947.508301	13916.973633	1803.772949	6.602159
582.350647	944.684753	13832.492188	1797.159790	6.614585
582.692566	946.765320	13764.579102	1791.438477	6.589838
583.034424	947.731201	13696.442383	1786.831665	6.581846
583.376343	949.217285	13628.753906	1781.333496	6.562670
583.718201	941.935547	13613.297852	1780.664673	6.619092
584.059937	939.855042	13518.934570	1784.082642	6.711362
584.401611	940.746765	13474.129883	1785.494507	6.739982
584.743347	939.260681	13382.366211	1788.540894	6.825307
585.085022	949.217285	13357.176758	1784.156860	6.729064
585.426514	948.028503	13327.531250	1777.692749	6.701919
585.768127	948.771484	13343.950195	1767.958984	6.608921
586.109619	939.855164	13371.518555	1762.980591	6.621201
586.451172	942.455750	13371.071289	1775.760742	6.704729
586.792542	946.616699	13392.024414	1788.838257	6.767328
587.133850	944.981995	13438.389648	1792.033203	6.779985
587.475220	938.814880	13487.503906	1788.095093	6.767880
587.816589	937.551758	13516.333008	1786.386108	6.748145
588.157776	939.409363	13585.434570	1796.639648	6.778654
588.498962	947.062500	13722.523438	1798.720215	6.666356
588.840210	947.062439	13850.918945	1800.354858	6.612693
589.181335	951.966370	13966.312500	1803.624390	6.543994
589.522400	952.040710	13993.655273	1805.481812	6.543983
589.863403	948.325623	13992.167969	1810.311523	6.608374
590.204407	945.576416	13905.606445	1813.357910	6.695829
590.545410	937.774597	13810.202148	1807.265137	6.754674
590.886353	941.341125	13648.666992	1801.098022	6.765836
591.227112	947.954102	13518.042969	1785.642944	6.664144
591.567932	955.012878	13432.743164	1782.522095	6.631889
591.908752	949.885986	13406.440430	1778.138306	6.649128
592.249512	951.966492	13420.409180	1781.110474	6.649940
592.590149	941.786926	13430.809570	1786.163086	6.760947
592.930786	953.601074	13542.265625	1795.971191	6.691497
593.271423	945.799316	13646.437500	1800.429321	6.729032
593.612000	949.885986	13801.284180	1810.460083	6.696346
593.952576	942.752991	13899.809570	1821.605469	6.782810
594.292969	947.805481	14018.174805	1836.465942	6.799047
594.633484	949.291687	14200.364258	1850.360718	6.799971
594.973877	938.814941	14471.273438	1854.075806	6.763448
595.314209	933.465149	14800.582031	1867.450317	6.735251
595.654480	939.037842	15118.374023	1877.555298	6.618910
595.994812	948.920105	15400.500977	1892.713013	6.530724
596.335022	948.771484	15602.233398	1902.149536	6.506163
596.675171	938.889160	15615.905273	1918.644897	6.675443
597.015320	933.762390	15518.047852	1923.474609	6.786155
597.355408	931.161682	15217.198242	1912.254883	6.867498
597.695496	932.721985	14866.191406	1872.279907	6.743173
598.035461	932.350525	14392.066406	1836.911743	6.720508
598.375366	936.139893	13952.640625	1801.543823	6.648514
598.715271	937.328796	13574.809570	1773.605835	6.617435
599.055176	948.028320	13233.018555	1746.411011	6.498847
599.395081	948.845703	12995.620117	1727.389648	6.462676
599.734802	949.811584	12780.067383	1708.813965	6.415773
600.074524	946.319397	12671.734375	1709.631348	6.509893
600.414246	943.941711	12611.176758	1710.671509	6.571650
600.753906	941.712708	12626.855469	1729.767212	6.744072
601.093506	937.328918	12686.223633	1737.420410	6.809930
601.433044	937.923340	12810.308594	1747.376953	6.817953
601.772583	939.260742	12988.190430	1746.485352	6.699554
602.112122	941.118164	13276.929688	1763.129272	6.663616
602.451538	941.489685	13623.702148	1775.166138	6.573588
602.790894	939.112061	14026.644531	1801.618042	6.590287
603.130310	942.009827	14390.355469	1826.806641	6.579224
603.469604	943.644531	14786.834961	1854.596069	6.580503
603.808838	948.920105	15128.034180	1882.905151	6.587048
604.148010	939.409363	15444.340820	1895.536743	6.591740
604.487305	939.186462	15539.374023	1907.573730	6.632704
604.826416	942.604309	15455.708008	1896.057007	6.569599
605.165527	946.542297	15151.215820	1877.927124	6.556890
605.504456	943.718811	14769.968750	1856.007690	6.598238
605.843445	935.694153	14291.609375	1829.407227	6.691515
606.182434	936.437195	13829.000000	1806.076294	6.745277
606.521423	943.347351	13426.948242	1777.915649	6.685317
606.860229	946.096497	13132.188477	1757.407837	6.657683
607.199036	942.827209	12946.655273	1746.485474	6.695016
607.537903	937.477356	12878.444336	1738.535156	6.708484
607.876648	935.099792	12930.752930	1747.451538	6.772051
608.215271	930.418640	13085.823242	1757.036499	6.800415
608.553955	931.533203	13265.338867	1773.308716	6.824945
608.892578	930.938782	13447.454102	1782.447876	6.803084
609.231140	938.889160	13586.473633	1775.537720	6.615086
609.569641	936.660095	13634.772461	1775.463501	6.605733
609.908081	937.774597	13572.729492	1769.965210	6.586415
610.246521	944.461914	13350.489258	1758.448120	6.561215
610.584961	945.204895	13015.608398	1736.677368	6.557134
610.923340	946.690979	12662.596680	1714.758179	6.555765
611.261597	936.214355	12302.450195	1697.074219	6.694035
611.599854	939.706543	12001.226563	1680.356079	6.695731
611.938110	940.598145	11705.799805	1669.433594	6.770291
612.276245	939.780762	11480.440430	1655.761841	6.792564
612.614319	937.626038	11305.382813	1644.244995	6.815543
612.952393	942.901550	11182.114258	1620.245117	6.615192
613.290466	953.229675	11083.291992	1610.140015	6.484761
613.628479	948.028503	10954.895508	1591.712891	6.432426
613.966370	940.523743	10838.538086	1596.765503	6.630034
614.304260	934.356689	10730.353516	1586.065796	6.652811
614.642151	941.861328	10648.620117	1584.059570	6.615991
614.979980	944.684814	10582.862305	1575.069214	6.540493
615.317749	943.644531	10544.077148	1576.480835	6.591748
615.655396	940.003723	10554.330078	1576.629395	6.621636
615.993164	935.917053	10546.082031	1574.028687	6.639966
616.330811	941.489746	10544.967773	1577.446655	6.622152
616.668396	941.638367	10518.961914	1577.075195	6.634806
617.005859	944.833435	10531.444336	1576.629517	6.590401
617.343445	947.582581	10524.311523	1579.378784	6.597203
617.680908	943.941711	10547.419922	1576.257935	6.584241
618.018311	944.387512	10558.119141	1579.973022	6.611226
618.355652	945.799316	10554.254883	1572.097046	6.518194
618.692993	950.703308	10475.270508	1574.771851	6.552198
619.030273	945.725098	10405.204102	1571.353882	6.613777
619.367554	948.177002	10356.089844	1575.886353	6.672143
619.704712	950.628967	10360.102539	1575.960571	6.645766
620.041870	951.297668	10360.770508	1576.555054	6.644978
620.379028	937.403137	10314.035156	1563.254883	6.674590
620.716064	937.626038	10295.235352	1560.282837	6.654016
621.053040	941.192566	10263.582031	1555.824829	6.593076
621.389954	942.381409	10272.424805	1559.837036	6.617929
621.726929	936.288574	10243.521484	1548.171509	6.574274
622.063843	934.653992	10230.518555	1559.985718	6.726989
622.400635	943.793152	10218.779297	1554.932983	6.589118
622.737427	949.811707	10206.445313	1557.236450	6.562048
623.074219	952.858093	10221.378906	1546.090942	6.400513
623.410889	952.412292	10222.791992	1557.310669	6.525066
623.747559	953.526855	10257.416992	1574.771851	6.677260
624.084167	953.229675	10288.846680	1576.480835	6.676057
624.420715	946.690979	10404.164063	1574.400391	6.637179
624.757324	939.706543	10518.961914	1574.994751	6.631916
625.093750	936.660156	10669.870117	1588.294922	6.694963
625.430176	940.821106	10869.002930	1603.824219	6.677991
625.766602	947.508301	11093.321289	1619.427856	6.622629
626.102905	952.040771	11308.799805	1635.031372	6.594636
626.439209	946.616699	11398.706055	1640.975586	6.643254
626.775452	937.031677	11466.469727	1641.049805	6.686189
627.111694	935.991394	11444.997070	1632.059204	6.623536
627.447876	938.220459	11382.731445	1625.669312	6.581915
627.783997	937.551758	11227.588867	1611.477417	6.549303
628.120056	936.437256	11053.792969	1603.824219	6.596457
628.456055	937.923279	10901.620117	1594.610474	6.590798
628.792053	950.183167	10783.107422	1590.003906	6.506923
629.128052	956.870422	10631.159180	1581.384766	6.455403
629.463928	960.065430	10465.613281	1579.750122	6.519190
629.799744	949.514465	10310.542969	1573.880249	6.669842
630.135559	937.923279	10203.770508	1561.323120	6.727931
630.471375	930.641602	10120.104492	1555.081665	6.795175
630.807068	937.997559	10042.831055	1545.199341	6.669004
631.142700	944.833435	9957.084961	1547.725586	6.689695
631.478333	948.474182	9902.546875	1540.369751	6.610351
631.813965	943.570129	9843.624023	1530.190063	6.591196
632.149475	938.889160	9821.258789	1516.964355	6.508120
632.484924	944.090332	9799.562500	1512.432007	6.417971
632.820435	950.926086	9799.563477	1520.307983	6.434684
633.155884	950.406006	9827.649414	1526.549316	6.490115
633.491150	951.149109	9832.850586	1526.177856	6.474308
633.826477	949.291504	9810.708008	1526.177734	6.510091
634.161804	952.932373	9759.810547	1523.800171	6.482068
634.497009	943.644531	9682.758789	1518.375977	6.576541
634.832153	944.833496	9618.413086	1516.815796	6.594535
635.167297	954.492737	9571.973633	1513.620728	6.488300
635.502380	958.133606	9505.250000	1503.738403	6.383496
635.837463	954.344055	9391.121094	1496.011108	6.420308
636.172424	946.393738	9274.391602	1485.162720	6.469370
636.507324	938.889160	9203.061523	1487.911987	6.643410
636.842224	945.799255	9149.785156	1484.196777	6.562633
637.177124	948.251282	9044.721680	1476.395020	6.523136
637.511963	953.378174	8925.391602	1473.497192	6.524312
637.846741	954.046875	8811.559570	1469.113281	6.555082
638.181396	943.198730	8755.312500	1468.073242	6.718726
638.516113	947.285339	8704.118164	1456.779175	6.568323
638.850769	933.093567	8683.536133	1440.283813	6.544017
639.185303	938.814941	8591.401367	1437.163208	6.512155
639.519836	936.214294	8519.327148	1437.163086	6.606110
639.854370	946.988098	8414.634766	1434.636841	6.530153
640.188843	944.981995	8351.402344	1430.030151	6.549023
640.523254	946.988098	8280.741211	1425.200562	6.520706
640.857605	942.232727	8230.661133	1433.819458	6.744756
641.191895	946.096497	8187.342285	1427.132324	6.642998
641.526184	944.164734	8159.330566	1417.918823	6.566087
641.860413	945.502136	8125.522949	1411.083008	6.484394
642.194580	942.530029	8094.613281	1412.346069	6.568940
642.528748	948.325684	8071.652832	1409.374023	6.472373
642.862793	945.056396	8043.269531	1409.448242	6.542377
643.196838	943.867493	8007.826660	1409.522583	6.591985
643.530823	943.570313	7972.682129	1418.439087	6.755744
643.864746	945.427917	7976.248535	1408.779663	6.590294
644.198669	952.263672	7963.319824	1402.389648	6.420231
644.532532	947.136780	7939.691406	1393.250366	6.379837
644.866333	956.053223	7926.242676	1401.052246	6.384317
645.200073	959.025330	7938.947754	1406.476196	6.410542
645.533813	951.669250	7970.898438	1412.197632	6.560954
645.867554	946.765320	7991.777832	1411.008667	6.589674
646.201172	941.341125	8011.244629	1407.665039	6.595902
646.534729	949.811707	8018.081543	1408.556641	6.490201
646.868225	945.650696	8014.588379	1406.030396	6.512714
647.201782	945.056335	8030.415527	1404.470093	6.483987
647.535217	940.672546	8012.582520	1405.584595	6.574066
647.868591	938.146179	8000.916504	1401.200684	6.556273
648.201965	936.437195	7953.586426	1399.788940	6.603134
648.535278	939.855042	7949.425781	1391.689941	6.445971
648.868591	946.913818	7948.756348	1397.039673	6.428677
649.201782	944.461853	7937.685059	1389.906738	6.369665
649.534912	944.907715	7924.904785	1393.473267	6.426443
649.868103	939.409241	7887.084473	1386.786011	6.439229
650.201172	937.626038	7893.920410	1400.011719	6.647011
650.534180	938.666199	7885.747559	1393.324585	6.544596
650.867188	940.895325	7888.720215	1400.160522	6.610201
651.200134	944.313293	7913.091309	1397.634155	6.505027
651.533020	937.105957	7910.564941	1394.513550	6.559264
651.865845	935.099792	7916.509277	1391.318359	6.534763
652.198608	936.808777	7873.487793	1400.011841	6.677591
652.531433	940.152344	7836.113281	1412.048828	6.843085
652.864136	939.483643	7780.164063	1403.801270	6.787594
653.196777	1072.856934	7873.042480	1449.200195	5.534309
653.529358	1088.980591	7837.005371	1442.810181	5.243454
653.861938	1088.014771	7766.119629	1450.686401	5.430757
654.194519	952.560852	7566.542969	1384.631226	6.532681
654.526978	938.517639	7534.741699	1381.139038	6.710224
654.859375	939.334961	7525.825684	1366.204224	6.480982
655.191833	941.861328	7517.280762	1364.718140	6.430872
655.524170	941.341125	7484.587402	1364.941040	6.473850
655.856445	948.251282	7470.246582	1373.708618	6.523423
656.188660	952.412292	7470.989746	1379.652954	6.554201
656.520874	949.142883	7502.345703	1381.956421	6.604611
656.853088	943.718811	7578.505371	1379.950195	6.574912
657.185181	935.842773	7659.867188	1393.547485	6.807005
657.517212	942.678528	7798.813965	1396.816772	6.623823
657.849243	941.415466	7950.242676	1419.182007	6.816640
658.181274	942.455750	8154.203613	1418.736328	6.604232
658.513123	937.848938	8330.747070	1434.265503	6.714777
658.844971	937.477478	8510.336914	1441.844238	6.660189
659.176819	940.523926	8644.750977	1453.138306	6.653677
659.508667	940.598145	8748.774414	1450.240356	6.527033
659.840393	942.158508	8749.219727	1443.107422	6.416613
660.172058	948.697205	8652.403320	1442.364258	6.408176
660.503662	951.000488	8480.541016	1442.067261	6.521869
660.835266	956.127441	8304.294922	1431.441895	6.468476
661.166931	942.975830	8101.374512	1414.649536	6.589096
661.498413	941.638367	7891.988770	1399.343140	6.585348
661.829773	931.904785	7689.365234	1389.089355	6.765627
662.161194	931.979004	7511.484863	1380.247437	6.813102
662.492615	934.951172	7372.910156	1374.451782	6.826707
662.823975	948.251404	7251.277344	1366.129883	6.629807
663.155212	952.115051	7164.937500	1351.492188	6.428272
663.486450	950.034607	7076.368652	1342.798706	6.411079
663.817627	948.102722	6986.165527	1333.585205	6.384208
664.148743	959.396729	6929.694824	1330.464355	6.215228
664.479858	967.644348	6887.416016	1324.000122	6.019755
664.810913	960.214050	6872.853027	1330.167236	6.256989
665.141907	956.498840	6847.664063	1325.411987	6.262143
665.472778	950.406067	6835.330566	1331.504761	6.475847
665.803711	955.310120	6840.977051	1324.668945	6.275565
666.134583	949.365906	6818.686035	1330.093140	6.486735
666.465454	948.028381	6804.494141	1323.703003	6.414699
666.796143	944.759094	6754.859863	1328.161133	6.598888
667.126831	951.966492	6763.553223	1329.944336	6.503866
667.457458	946.319519	6766.005859	1339.975220	6.764208
667.788147	947.954102	6808.878906	1349.040161	6.843392
668.118774	940.895447	6817.497559	1344.582031	6.869388
668.449219	934.951172	6842.017578	1338.117676	6.825156
668.779663	939.186340	6835.033203	1320.433594	6.466370
669.110107	943.421570	6822.996094	1331.876099	6.606847
669.440552	954.789856	6798.847656	1331.801880	6.451203
669.770874	950.851868	6763.256348	1335.517090	6.618005
670.101135	942.158508	6736.953613	1327.938232	6.657349
670.431396	942.455750	6678.402832	1319.541992	6.574089
670.761597	938.443359	6635.158203	1315.083862	6.611538
671.091797	941.638367	6606.403809	1311.814575	6.534714
671.421875	945.650696	6550.007813	1304.681519	6.406281
671.751892	947.582703	6505.798340	1299.777466	6.336472
672.081909	947.211121	6452.447754	1287.963257	6.189600
672.411865	939.037781	6459.953125	1284.322388	6.254118
672.741821	942.232727	6447.989746	1287.517578	6.271342
673.071716	943.793152	6424.138672	1293.981812	6.389901
673.401550	946.319397	6372.572754	1295.839355	6.441276
673.731262	940.895325	6352.882813	1287.220337	6.399221
674.060974	941.118347	6315.359375	1280.384521	6.312820
674.390625	939.632263	6300.499512	1278.898438	6.328569
674.720276	940.969666	6258.072266	1286.551636	6.499442
675.049927	941.489746	6235.781250	1285.065552	6.489552
675.379395	941.266846	6221.144531	1285.288452	6.515711
675.708923	943.867432	6203.980469	1279.046997	6.372098
676.038330	948.994324	6193.949219	1278.675415	6.285680
676.367737	948.102722	6183.695313	1283.133667	6.399102
676.697083	945.056335	6196.177734	1282.167847	6.419800
677.026428	933.019287	6198.927246	1288.334839	6.747469
677.355652	935.545593	6195.881348	1285.585571	6.654327
677.684875	933.316406	6212.599121	1300.148926	6.948530
678.013977	934.208069	6268.326172	1298.811401	6.835307
678.343079	927.223633	6329.923340	1303.343994	6.961711
678.672180	928.561096	6383.421387	1292.867310	6.678562
679.001221	939.483582	6447.023926	1299.628784	6.539129
679.330139	937.328857	6540.051270	1302.080811	6.510262
679.659058	937.923279	6646.378418	1310.699951	6.530255
679.987976	929.081238	6748.470215	1317.164307	6.668794
680.316772	940.672424	6789.039063	1324.520386	6.563336
680.645630	944.461914	6801.894043	1318.798950	6.390804
680.974304	952.263672	6745.349609	1314.860962	6.259139
681.302979	951.743469	6707.900879	1315.009644	6.310915
681.631653	948.251282	6658.118652	1316.792847	6.454468
681.960266	943.867432	6638.947754	1319.541992	6.596476
682.288757	936.065674	6574.750488	1311.591553	6.659813
682.617249	937.700378	6494.429199	1307.059082	6.647053
682.945679	940.969727	6399.247559	1293.536011	6.459295
683.274109	944.090393	6315.210938	1288.334839	6.409173
683.602478	944.090332	6213.937500	1277.338013	6.323669
683.930725	938.666260	6106.568848	1268.793335	6.388029
684.259033	946.022278	6033.381348	1259.579712	6.163462
684.587280	945.279236	5959.746582	1262.774658	6.331588
684.915344	948.177063	5897.183594	1256.682007	6.233675
685.243469	942.158508	5835.587402	1257.573608	6.445687
685.571533	946.319519	5822.435547	1252.818237	6.285714
685.899536	944.238953	5802.745605	1261.288696	6.525662
686.227539	940.895325	5804.083496	1257.796509	6.516326
686.555420	940.077942	5815.153809	1257.945068	6.520250
686.883301	936.660095	5842.051270	1260.768555	6.607189
687.211121	941.192566	5860.775391	1262.626221	6.533758
687.538940	942.529968	5858.917969	1270.353638	6.667978
687.866638	944.610413	5856.540527	1262.403198	6.469815
688.194336	946.468018	5829.643066	1260.842896	6.437920
688.521973	940.300964	5779.117188	1253.115356	6.464688
688.849609	947.062500	5730.077637	1252.000854	6.375442
689.177063	949.142883	5679.031250	1246.948364	6.296248
689.504578	956.647522	5604.060059	1240.409668	6.105809
689.832031	950.628967	5529.236816	1243.158936	6.389059
690.159485	947.062500	5469.794922	1242.564575	6.533707
690.486816	938.591980	5437.398438	1237.660522	6.647730
690.814087	943.718811	5372.904297	1225.623413	6.364705
691.141296	945.279236	5308.557617	1217.970215	6.249681
691.468506	939.335022	5250.378418	1221.090942	6.535678
691.795715	932.127625	5220.955078	1218.638916	6.680410
692.122803	926.926453	5171.023438	1226.515015	7.058947
692.449829	932.722107	5132.014648	1222.279663	6.895389
692.776855	931.236023	5078.962891	1220.125000	6.964995
693.103821	934.505188	5037.798340	1210.465698	6.725343
693.430664	941.861267	5012.312988	1206.230469	6.494837
693.757568	947.136719	5021.749512	1207.270630	6.384261
694.084351	950.628967	5017.142578	1215.146729	6.504780
694.411133	943.421631	5012.609863	1217.450073	6.734229
694.737854	945.725037	4981.849121	1215.072388	6.673416
695.064575	944.387512	4980.064941	1201.252075	6.364844
695.391174	948.622803	4991.359375	1204.967285	6.340865
695.717773	945.873596	5036.089355	1211.134277	6.485249
696.044250	941.861267	5079.928223	1217.227173	6.654458
696.370789	940.300964	5132.906250	1218.118774	6.626376
696.697205	935.619934	5202.973633	1223.245728	6.740145
697.023621	931.384583	5312.124512	1230.824585	6.835375
697.349915	932.796387	5426.179199	1243.456055	6.913715
697.676208	940.375305	5591.947754	1247.468384	6.601920
698.002380	942.678711	5783.872559	1262.700439	6.610389
698.328674	942.455750	6002.916504	1273.697266	6.545679
698.654724	939.780823	6174.185059	1288.037598	6.653226
698.980896	949.960266	6310.529785	1291.158325	6.364959
699.306946	948.994385	6341.514160	1284.545410	6.222528
699.632935	942.009949	6279.025391	1279.121460	6.316480
699.958862	940.226746	6126.705078	1272.136963	6.399529
700.284729	941.192627	5944.365723	1272.359741	6.619142
700.610596	948.028503	5742.634277	1257.202026	6.448361
700.936340	944.239014	5532.283691	1248.880127	6.639890
701.262146	946.170898	5348.904297	1227.480957	6.389441
701.587830	941.266907	5188.113281	1218.192993	6.520747
701.913513	940.226624	5057.785645	1208.756714	6.521585
702.239075	930.938782	4925.750000	1205.338745	6.868909
702.564697	941.341125	4855.459473	1205.338867	6.744756
702.890137	937.105957	4779.299316	1198.354126	6.799454
703.215698	939.335022	4740.513184	1185.648438	6.479923
703.541016	937.997559	4658.408691	1172.942749	6.315033
703.866455	947.211121	4602.458496	1158.528076	5.781195
704.191711	952.932373	4533.283203	1159.716919	5.775538
704.517029	950.703308	4492.416504	1162.466187	5.979109
704.842163	947.879883	4449.246582	1165.735474	6.222016
705.167419	948.399902	4432.231934	1163.060547	6.161624
705.492493	945.650696	4409.346191	1163.209106	6.281106
705.817566	935.768494	4392.554199	1161.425781	6.527951
706.142578	941.564026	4368.405762	1174.205933	6.788814
706.467590	943.644531	4367.736816	1170.787964	6.633683
706.792480	947.508301	4375.984375	1170.713745	6.510340
707.117371	937.403137	4404.368164	1162.911987	6.504503
707.442200	942.307068	4400.652832	1167.890259	6.522864
707.766907	948.028381	4389.656250	1174.354614	6.576139
708.091675	949.440186	4372.343262	1166.329834	6.336424
708.416321	943.124512	4383.934570	1163.580688	6.407101
708.741028	943.793274	4401.470215	1165.066528	6.399477
709.065552	950.926270	4432.008789	1170.342163	6.303094
709.390137	957.316223	4435.278320	1172.199707	6.178431
709.714600	954.121277	4463.141602	1174.874634	6.291026
710.039063	949.217285	4479.934082	1181.561890	6.580664
710.363403	949.960266	4554.385254	1186.837402	6.571843
710.687744	949.886047	4619.994629	1186.317139	6.442073
711.012085	944.461914	4683.449219	1184.756836	6.426738
711.336304	934.579590	4722.234863	1186.242920	6.644304
711.660461	932.424805	4729.368652	1187.283081	6.712195
711.984619	931.310303	4714.805176	1189.958130	6.836215
712.308716	938.443359	4672.304199	1182.527832	6.537053
712.632751	945.576416	4634.409180	1173.537231	6.179755
712.956726	948.548523	4597.852051	1165.958374	5.957571
713.280701	947.433899	4544.354492	1157.859253	5.850153
713.604553	941.266846	4500.292969	1164.100708	6.261091
713.928467	947.879822	4469.234375	1167.592896	6.239448
714.252258	952.560852	4436.615723	1176.434937	6.425676
714.575989	956.053040	4400.652832	1172.571289	6.285730
714.899719	952.337952	4377.173340	1172.496948	6.428309
715.223267	941.935608	4389.507813	1175.543335	6.776007
715.546936	935.768555	4405.928223	1171.233765	6.785429
715.870422	934.282471	4412.986816	1164.323608	6.612840
716.193970	935.917053	4393.742676	1157.116211	6.397059
716.517395	946.839600	4361.421387	1155.258667	6.103795
716.840820	944.833435	4309.632324	1152.435181	6.169812
717.164124	946.245178	4249.372559	1151.543579	6.215273
717.487488	936.139954	4198.475098	1151.840820	6.611855
717.810730	934.133789	4132.419922	1147.531250	6.672244
718.133972	934.802551	4078.104736	1140.249634	6.536027
718.457092	940.598145	4025.944336	1124.645996	5.965225
718.780212	948.548523	3978.762451	1125.389038	5.835909
719.103210	946.393738	3939.307373	1125.017578	5.968226
719.426208	946.616699	3887.072510	1130.070190	6.238947
719.749207	944.833435	3847.840820	1128.138184	6.314305
720.072083	951.297791	3796.720703	1124.125854	6.073897
720.394958	945.576477	3745.377686	1120.039185	6.231253
720.717773	942.975830	3699.384033	1113.129028	6.173004
721.040527	936.511536	3663.049805	1109.116699	6.330561
721.363281	936.139954	3646.703369	1114.020630	6.562498
721.685913	941.935730	3633.106201	1112.831909	6.350255
722.008545	944.610535	3625.081055	1115.283813	6.367288
722.331055	951.520691	3607.025391	1111.197266	6.013041
722.653503	950.183167	3580.871094	1110.677124	6.100836
722.976013	947.285400	3572.920654	1109.636841	6.183321
723.298401	945.427795	3574.852539	1109.339600	6.233751
723.620789	936.808655	3580.053955	1111.122925	6.594707
723.943115	943.644531	3565.119141	1102.652344	6.065587
724.265381	942.530029	3551.149658	1094.999146	5.844820
724.587585	949.885986	3547.583252	1096.113770	5.629131
724.909790	942.158508	3576.041260	1102.652466	6.093436
725.231873	943.867432	3591.347656	1114.020752	6.426991
725.553894	939.855164	3612.821289	1113.352051	6.490800
725.875916	981.464661	3656.808350	1134.379639	5.715714
726.197937	984.733948	3669.365479	1128.063965	5.338908
726.519775	986.665833	3676.944336	1128.435425	5.269700
726.841675	944.684753	3639.495850	1108.373779	6.074230
727.163513	941.192566	3661.935303	1114.243652	6.360435
727.485291	944.164734	3695.520264	1110.900024	6.060114
727.806946	947.582581	3753.104736	1111.048462	5.826576
728.128662	940.746765	3782.157227	1118.850220	6.268136
728.450256	945.502136	3802.218750	1119.444824	6.088902
728.771790	945.130615	3785.352295	1127.469360	6.419877
729.093323	954.344177	3777.030273	1123.011230	5.975410
729.414795	951.074768	3754.591064	1133.785156	6.517187
729.736145	956.870422	3745.080078	1127.469360	6.118583
730.057495	952.114990	3734.157471	1130.887329	6.425939
730.378845	946.319397	3758.677734	1132.001953	6.602379
730.700134	936.437195	3785.500732	1129.624268	6.780722
731.021301	933.019287	3808.088623	1126.280640	6.721972
731.342468	929.081238	3815.593018	1115.878296	6.471377
731.663574	933.910889	3819.159912	1113.426270	6.221833
731.984680	939.706543	3814.032959	1107.556274	5.839620
732.305664	945.947937	3816.410889	1113.649170	5.842306
732.626648	944.833435	3809.649170	1111.865845	5.830477
732.947571	942.307068	3822.057617	1115.655273	6.019557
733.268433	940.598145	3809.871826	1108.893799	5.865445
733.589233	941.489929	3778.367920	1113.426147	6.060755
733.909973	948.028503	3730.219727	1108.447998	5.765941
734.230713	950.183167	3667.508057	1107.779297	5.799679
734.551331	954.789978	3626.270264	1110.008301	5.810199
734.871948	951.892090	3570.022705	1107.704956	5.951302
735.192505	953.452454	3539.113037	1101.686523	5.732928
735.513062	948.771423	3491.485107	1089.426636	5.531697
735.833435	950.703308	3465.181641	1094.404785	5.714962
736.153931	949.960266	3416.662109	1092.175659	5.765407
736.474304	954.789978	3387.535156	1092.547119	5.662621
736.794617	949.886047	3361.752197	1089.426392	5.785576
737.114807	947.805603	3353.653564	1095.444946	6.136686
737.434998	940.672546	3359.003174	1104.584106	6.777881
737.755188	936.511536	3367.844971	1109.785400	7.126701
738.075256	940.746765	3376.686768	1108.968018	6.905805
738.395325	945.725037	3392.142334	1101.760742	6.378131
738.715271	951.074768	3427.956055	1092.770020	5.720712
739.035278	941.341125	3459.757813	1091.209839	5.950910
739.355164	936.140076	3464.438721	1096.485229	6.342018
739.675049	935.025452	3434.569092	1105.253052	6.810347
739.994873	939.557861	3412.723877	1104.658569	6.675683
740.314636	943.867432	3386.494873	1101.314819	6.445821
740.634277	942.232727	3369.479492	1090.466675	6.107082
740.953979	940.523865	3334.928955	1090.689575	6.271525
741.273499	942.084229	3307.585693	1091.209839	6.304186
741.593140	944.684814	3270.954346	1100.869141	6.713939
741.912598	948.771484	3237.815430	1099.903198	6.602395
742.232117	950.183167	3192.119141	1090.466675	6.257248
742.551453	945.353516	3165.593018	1084.968262	6.288274
742.870850	943.124451	3125.766846	1079.024170	6.226385
743.190063	941.341125	3116.999268	1082.887817	6.505925
743.509338	943.644531	3091.662109	1070.330688	5.897818
743.828552	943.941711	3072.714844	1072.634155	6.045381
744.147705	948.474182	3046.262939	1069.216187	5.755680
744.466797	952.337952	3021.000000	1069.661987	5.671494
744.785828	958.802307	3017.879150	1068.027344	5.304563
745.104858	954.641418	3004.207764	1065.055176	5.387177
745.423706	960.288391	3004.207764	1064.980957	5.122148
745.742615	953.898376	2989.272705	1061.786011	5.300629
746.061401	955.161438	2973.891846	1063.420532	5.362731
746.380249	943.570251	2955.985107	1066.021118	6.084773
746.698975	942.084229	2946.177002	1064.089233	6.087792
747.017639	932.945007	2956.356689	1062.083008	6.382191
747.336304	936.734375	2951.081299	1061.934570	6.215424
747.654907	944.461914	2955.242188	1066.689819	6.078630
747.973389	942.381348	2961.483398	1072.634033	6.451020
748.291931	941.043945	2966.610352	1071.519531	6.441437
748.610352	934.430969	2971.291748	1071.148071	6.712147
748.928711	944.164734	2955.093750	1072.485474	6.381167
749.247070	943.495911	2953.607422	1079.469849	6.764497
749.565308	944.238953	2954.721924	1077.909546	6.648681
749.883545	940.375183	2952.641357	1069.587769	6.421247
750.201782	941.489746	2959.997314	1058.368042	5.790332
750.519836	942.307129	2953.681641	1060.448486	5.873663
750.837952	939.112122	2943.725342	1066.838501	6.371622
751.155884	940.300964	2918.239502	1072.188354	6.667922
751.473877	936.585876	2897.434814	1072.336914	6.923075
751.791809	935.471252	2898.549072	1063.420532	6.517789
752.109619	932.276306	2897.657471	1063.717773	6.687836
752.427490	935.768494	2901.223877	1066.466919	6.649778
752.745300	940.969666	2901.149658	1069.587646	6.561540
753.062988	942.455750	2893.942383	1060.671387	6.057722
753.380615	938.889160	2882.722656	1056.510376	6.050992
753.698303	937.254578	2871.725830	1056.510376	6.164775
754.015808	938.889221	2873.063477	1062.974731	6.415425
754.333374	940.449524	2881.162109	1061.711548	6.248324
754.650757	946.616638	2875.886719	1055.693115	5.653769
754.968262	944.758972	2870.387939	1055.916016	5.772506
755.285583	949.737305	2860.654541	1056.659058	5.595311
755.602905	938.146179	2852.184326	1067.581421	6.762417
755.920105	941.489746	2858.722656	1068.250122	6.611631
756.237305	937.625977	2857.311279	1064.312134	6.599319
756.554443	945.056335	2861.992188	1056.659058	5.821933
756.871582	948.102722	2850.698242	1056.138916	5.678359
757.188599	948.845703	2858.722900	1055.618774	5.590573
757.505615	947.582520	2884.357422	1063.049072	5.961795
757.822510	945.799316	2908.877197	1067.061401	6.177141
758.139465	941.786926	2935.254639	1069.216187	6.392341
758.456238	935.917053	2953.755859	1074.491577	6.867472
758.773010	933.167786	2989.792969	1072.039551	6.752410
759.089783	937.477356	3010.746338	1077.017944	6.730462
759.406433	940.969666	3020.702881	1067.655762	6.091459
759.723145	937.254578	3018.102295	1065.352417	6.156041
760.039673	930.864502	3008.294189	1071.668213	6.777785
760.356201	933.167908	3020.851563	1073.154175	6.705339
760.672668	941.415527	3027.018311	1078.429688	6.569523
760.989136	951.149109	3027.315674	1074.268677	5.930140
761.305481	950.554749	3014.535889	1072.336914	5.900352
761.621826	949.514465	3001.309814	1071.148071	5.928154
761.938049	947.805481	3013.198242	1066.912720	5.766808
762.254333	957.019043	3044.777100	1071.370972	5.477260
762.570496	954.864319	3135.500732	1074.937500	5.506337
762.886597	953.006775	3265.753174	1091.061157	5.969284
763.202637	949.588806	3465.478760	1102.726685	6.086828
763.518677	950.034607	3679.322021	1118.330200	6.166284
763.834656	948.325623	3908.917236	1128.583984	6.088593
764.150574	942.752930	4075.429932	1137.648926	6.221388
764.466370	943.421692	4135.764160	1142.404297	6.233122
764.782288	950.554688	4074.241455	1138.094727	6.003804
765.097961	946.542297	3923.927002	1134.453979	6.311300
765.413696	943.718933	3725.538330	1111.865845	6.044494
765.729309	934.059387	3527.076172	1093.587524	6.152221
766.044861	937.328796	3349.789795	1081.624634	5.981271
766.360474	930.790222	3224.886719	1083.110718	6.639673
766.675903	931.533203	3130.447998	1078.652588	6.690545
766.991394	929.824219	3048.789063	1069.141846	6.574797
767.306763	934.802551	3001.755615	1072.188232	6.646773
767.622131	945.947937	2968.542236	1074.565918	6.359060
767.937378	946.765320	2927.750244	1075.977661	6.522632
768.252625	953.824036	2872.765869	1065.501099	5.819721
768.567810	944.833496	2824.840820	1067.135620	6.505407
768.882996	949.068665	2804.110352	1072.336792	6.645032
769.197998	939.706543	2781.893799	1069.587646	7.050375
769.513062	935.619873	2750.612549	1062.008789	6.963605
769.828064	935.619873	2710.489014	1051.606323	6.534930
770.142944	939.186340	2681.436523	1051.532104	6.448314
770.457825	937.254578	2654.539063	1049.526001	6.537730
770.772705	939.706543	2642.353271	1048.634277	6.397553
771.087402	938.369080	2628.904297	1048.411377	6.509317
771.402100	946.170837	2620.731201	1049.823242	6.189828
771.716736	942.975830	2608.025391	1054.727173	6.711593
772.031372	946.319397	2597.103027	1055.172974	6.594055
772.345947	947.211121	2570.502686	1059.854126	6.939173
772.660461	939.037781	2548.360352	1052.349487	7.040957
772.974854	937.774658	2526.961182	1052.349487	7.209653
773.289246	933.316589	2516.187256	1044.547729	7.027178
773.603638	940.969727	2506.973633	1047.965454	6.832405
773.917908	940.449524	2496.645752	1044.844849	6.708365
774.232178	944.907715	2494.268311	1042.615723	6.306344
774.546265	946.616699	2469.450928	1029.909912	5.469618
774.860474	947.731201	2457.116699	1031.024536	5.518361
775.174561	946.096497	2438.540771	1032.659180	5.800061
775.488586	950.406067	2442.404541	1043.358765	6.230080
775.802551	954.641296	2432.150879	1033.104980	5.310536
776.116516	956.275940	2418.107666	1025.228882	4.716886
776.430359	952.412292	2406.367920	1024.634399	4.967284
776.744202	946.988098	2394.479492	1029.538574	5.703002
777.057922	939.855042	2394.405273	1034.219604	6.487542
777.371704	938.220398	2391.284424	1032.882080	6.514626
777.685303	938.443359	2406.887939	1027.755249	6.082074
777.998962	944.090393	2402.206787	1032.139160	6.038528
778.312500	941.415527	2397.971680	1026.937866	5.871544
778.626038	944.164734	2386.157471	1030.207153	5.966911
778.939453	939.483643	2381.327881	1024.560181	5.900536
779.252869	939.334961	2370.479736	1035.631348	6.728627
779.566223	936.734375	2365.278564	1032.436401	6.699270
779.879578	946.616638	2361.265869	1033.773804	6.161045
780.192749	947.062500	2367.135986	1026.714966	5.609038
780.505920	951.223450	2357.699463	1029.315674	5.552332
780.819031	943.198730	2356.585205	1025.005981	5.788031
781.132141	945.650696	2357.031006	1030.578735	6.017375
781.445190	943.421692	2344.325195	1027.680908	6.014634
781.758118	943.941833	2329.539063	1025.154663	5.861215
782.071045	943.570251	2314.232666	1018.987610	5.502256
782.383911	941.415527	2306.282227	1022.777039	5.961133
782.696838	948.994385	2306.876709	1031.619019	6.084816
783.009583	950.480469	2290.901367	1021.439636	5.293797
783.322266	949.663086	2268.684814	1020.176453	5.345884
783.634888	945.353516	2257.167969	1012.225891	5.097701
783.947510	948.028381	2246.394287	1012.820313	4.990267
784.260132	953.898254	2243.421875	1010.962830	4.425244
784.572571	961.625732	2219.793701	1017.947266	4.476472
784.885010	952.263672	2202.778320	1022.702637	5.632798
785.197449	954.195496	2198.914795	1025.451782	5.724688
785.509766	954.269836	2186.655029	1024.188721	5.673460
785.822083	958.059265	2184.871338	1018.690369	4.942167
786.134277	952.783752	2178.630127	1015.272400	5.097592
786.446533	940.895325	2193.044922	1007.173340	5.293139
786.758606	944.907715	2201.515381	1018.467468	5.853836
787.070740	947.954102	2204.933105	1022.256836	5.911215
787.382690	953.898376	2210.580078	1031.841919	6.202330
787.694641	956.424622	2218.010498	1031.841797	5.977966
788.006653	946.765320	2264.449463	1036.151489	6.783581
788.318481	946.913879	2301.972412	1035.705688	6.552618
788.630310	935.545593	2351.309570	1032.807861	6.869950
788.942017	943.198730	2376.498291	1026.194824	5.790562
789.253784	944.610535	2393.885010	1030.504395	5.926680
789.565430	954.344055	2388.460938	1037.117310	5.771723
789.877014	950.257507	2353.538818	1041.129761	6.475698
790.188538	941.564148	2319.730957	1034.739624	6.760828
790.500061	944.387634	2289.861328	1029.687134	6.339738
790.811462	946.616699	2260.065918	1027.383667	6.149227
791.122925	948.771484	2228.710205	1023.891602	5.869040
791.434204	940.449463	2189.626709	1022.925598	6.602437
791.745483	941.489746	2166.815918	1024.634521	6.785522
792.056702	939.483643	2150.766602	1028.201050	7.324251
792.367920	944.907715	2138.135010	1022.554016	6.507252
792.678955	941.341125	2119.782227	1020.622131	6.727617
792.990112	954.567078	2112.203369	1014.677917	5.192550
793.301086	950.629089	2105.887451	1016.609863	5.711344
793.612122	951.149170	2107.447998	1010.888611	5.166436
793.922974	940.152344	2102.469727	1014.380676	6.386236
794.233826	945.130615	2094.296631	1012.448914	5.858013
794.544556	949.885986	2094.965088	1015.198059	5.703717
794.855286	953.006653	2097.565918	1011.408691	5.102579
795.166016	944.090393	2108.785400	1014.380798	6.035091
795.476624	937.997559	2125.132324	1006.727600	5.789574
795.787292	935.916992	2150.766602	1006.356140	5.798178
796.097778	933.242188	2181.602295	1006.578918	5.874646
796.408264	935.694153	2204.190186	1015.272400	6.273433
796.718689	935.545593	2214.592529	1014.975159	6.210059
797.029053	943.124512	2226.778076	1021.365234	6.095159
797.339355	948.177063	2214.072510	1026.046265	6.151313
797.649658	946.245117	2198.394531	1029.389771	6.640154
797.959839	946.616699	2167.038818	1027.012085	6.587506
798.270020	944.981995	2156.710693	1025.674805	6.659313
798.580078	951.372070	2141.701416	1027.755249	6.416978
798.890137	948.102722	2138.803711	1020.770813	6.102968
799.200195	948.622864	2129.590088	1017.352844	5.819804
799.510071	942.009949	2114.952393	1020.399231	6.683132
799.820007	944.907715	2085.157227	1020.919434	6.666235
800.129883	943.941711	2064.055420	1020.993652	6.878939
800.439575	947.656921	2050.458008	1019.061829	6.474868
800.749329	944.981934	2044.810913	1024.857422	7.262537
801.058960	946.245117	2045.999634	1022.108215	6.898185
801.368591	945.873718	2040.872681	1025.005981	7.226697
801.678162	944.610535	2032.328125	1024.188599	7.316060
801.987671	937.180237	2018.433472	1021.439514	7.792743
802.297119	937.477478	2019.325195	1016.386902	7.293950
802.606506	945.576416	2010.408691	1008.139343	5.875379
802.915894	955.310120	1999.114624	1001.897949	4.463272
803.225159	959.099548	1973.703125	996.176575	3.654336
803.534424	957.613525	1963.895142	1000.337585	4.245736
803.843628	955.978821	1955.276001	1010.665588	5.472523
804.152771	953.081055	1960.031616	1012.820374	5.932696
804.461792	949.365906	1969.839478	1009.328125	5.875921
804.770874	948.325623	1975.486694	1004.795715	5.497686
805.079773	943.495911	1984.180054	1000.411804	5.469085
805.388733	937.625977	1991.312866	1000.783386	5.993945
805.697571	938.591980	2004.464478	1008.436523	6.552804
806.006470	947.136780	2020.811035	1019.581970	6.747408
806.315125	958.356506	2035.300171	1026.194824	6.299152
806.623901	957.539246	2039.535522	1025.303223	6.262866
806.932495	957.836426	2036.637573	1013.489075	5.158750
807.241150	951.149170	2023.857422	1004.870056	5.007968
807.549622	944.833496	2018.730591	999.594482	5.099277
807.858154	938.369080	1999.337524	1001.377747	5.938787
808.166565	937.700378	1982.545288	998.851379	5.852639
808.474915	938.220459	1957.059204	1003.755432	6.432321
808.783264	940.598145	1938.186401	1007.396301	6.695965
809.091492	942.901550	1917.827515	1006.207458	6.493407
809.399719	946.096619	1911.511719	999.371582	5.518348
809.707825	946.245178	1917.084473	995.507813	5.074232
810.015930	940.746826	1919.536499	1003.606873	6.422222
810.323975	945.947937	1923.771851	1003.161072	5.851067
810.632080	954.195557	1904.155884	1003.904114	5.232698
810.939880	957.984924	1903.190063	1002.269470	4.685178
811.247864	951.743591	1892.861816	1000.188965	5.147639
811.555664	938.963440	1884.094116	996.993896	6.139940
811.863464	938.740540	1871.462524	1001.897949	6.771301
812.171143	939.409241	1858.236816	1007.470642	7.407418
812.478882	948.697083	1856.602173	1012.820496	7.062788
812.786438	953.229675	1851.549438	1005.613037	5.831260
813.094055	954.418457	1838.843750	1001.229187	5.292785
813.401489	952.783875	1822.794312	998.777161	5.286521
813.708984	949.365784	1804.218750	995.879395	5.441124
814.016357	946.468018	1811.203125	991.569824	5.215679
814.323730	945.576355	1823.760254	990.752441	5.144263
814.630981	950.406067	1826.732422	995.953674	5.197562
814.938232	954.864258	1825.766602	1005.464417	5.810084
815.245361	951.074890	1820.788086	1010.962830	6.885941
815.552490	947.656921	1832.156372	1007.024719	6.712022
815.859619	948.548523	1833.419556	1006.653320	6.566471
816.166565	943.570313	1841.518677	1000.040344	6.288784
816.473572	943.793152	1838.843750	1001.526428	6.450281
816.780457	941.341125	1836.763306	1000.263184	6.580366
817.087341	953.526855	1840.181274	999.000061	5.128628
817.394043	950.703308	1849.023315	1001.229187	5.624485
817.700806	951.892090	1860.094360	998.554199	5.137854
818.007507	947.656921	1865.072632	1001.229065	5.839462
818.314209	950.926270	1864.849731	993.501648	4.658528
818.620667	950.331848	1874.509155	994.096130	4.735486
818.927246	946.170898	1891.152954	980.870178	3.671951
819.233704	943.570313	1935.585938	994.319031	5.115717
819.540161	941.192566	1978.161255	995.879395	5.273720
819.846497	942.678650	2050.532227	1015.569580	6.579473
820.152832	947.731262	2131.819336	1013.340515	5.540910
820.458984	945.873718	2224.549072	1023.297058	6.054965
820.765259	942.009949	2313.043701	1023.891541	5.972252
821.071350	936.511536	2423.085938	1025.377563	5.977906
821.377502	941.861328	2613.301025	1026.640747	5.072239
821.683472	949.217285	2987.341064	1051.457886	5.016408
821.989441	956.573303	3699.235107	1105.178711	5.418291
822.295349	954.641418	4823.583984	1177.252441	5.753795
822.601196	951.743591	6235.187500	1263.815063	5.906592
822.907043	944.684875	7518.395996	1341.387085	6.034677
823.212769	944.536194	8298.053711	1394.513550	6.119212
823.518494	947.731262	8301.249023	1399.640259	6.145481
823.824097	952.560852	7659.570313	1355.578735	6.008906
824.129700	957.390625	6616.360840	1286.923218	5.823190
824.435242	954.715637	5556.060059	1215.221069	5.661507
824.740723	949.588806	4678.024902	1163.654907	5.741445
825.046082	948.622803	4034.711914	1129.178467	5.850630
825.351501	950.331787	3572.697998	1108.002075	6.012520
825.656799	949.960266	3248.143311	1085.562744	5.900421
825.962036	939.037781	3041.879150	1063.569092	5.922050
826.267212	941.118347	2953.681641	1055.767456	5.696671
826.572449	942.455750	2979.167725	1059.110962	5.727624
826.877502	950.108887	3140.478760	1071.148071	5.525970
827.182495	947.582581	3422.977783	1083.408081	5.487023
827.487488	944.610535	3764.770264	1104.286987	5.661965
827.792419	944.239014	4053.956299	1124.423096	5.794227
828.097290	945.130615	4146.983398	1138.169067	6.028961
828.402100	947.582581	4009.003662	1137.871948	6.215720
828.706848	951.074768	3697.674805	1125.240356	6.341134
829.011597	953.378174	3312.637939	1099.754517	6.204333
829.316223	960.139832	2949.520752	1068.324585	5.438112
829.620789	952.635193	2637.672363	1049.823120	5.767703
829.925354	947.656921	2415.804688	1032.287720	5.764461
830.229797	944.981995	2261.254639	1029.612793	6.429579
830.534302	952.858093	2129.739014	1022.999817	5.959968
830.838562	957.762024	2030.321777	1015.866882	5.417400
831.142944	955.755859	1961.666016	1003.904114	4.786536
831.447144	950.257507	1932.688110	994.541992	4.507645
831.751404	951.074768	1911.065918	995.656433	4.643966
832.055542	951.149109	1889.443848	994.467590	4.616724
832.359619	945.427795	1875.029175	999.966003	5.866838
832.663635	934.133789	1893.159058	997.959778	6.655298
832.967651	928.858337	1946.954102	995.136292	6.509992
833.271545	929.155579	2053.281250	993.798889	5.750541
833.575439	931.681885	2220.462646	1000.188965	5.315650
833.879211	931.756104	2446.565674	1023.445618	6.052874
834.183044	936.288574	2705.213623	1040.163696	5.872217
834.486694	943.421570	2892.084717	1058.739502	5.917798
834.790344	952.858093	2952.196045	1060.151245	5.366434
835.093933	953.898254	2881.682373	1054.578491	5.222589
835.397522	944.164734	2725.052490	1041.501221	5.465616
835.700928	938.814880	2535.654541	1022.331116	5.230095
836.004395	935.842773	2336.449219	1018.616028	5.909815
836.307739	943.867432	2169.713623	1008.436523	5.267308
836.611023	951.074768	2036.563110	1004.052673	4.880560
836.914307	960.065430	1936.254517	990.752441	3.143552
837.217529	957.167664	1859.202637	993.575989	4.036243
837.520691	950.108887	1795.079468	997.737000	5.636659
837.823730	947.434082	1733.928345	998.777161	6.528093
838.126831	947.062561	1694.399292	992.238525	6.044928
838.429749	943.495911	1664.529663	982.356262	5.389533
838.732727	937.774597	1646.473999	981.984802	6.238217
839.035522	933.985168	1623.886108	976.783508	6.203548
839.338379	940.523865	1605.384644	980.944519	6.079566
839.641113	940.895325	1621.285522	980.127197	5.766084
839.943848	945.502136	1661.408813	982.653503	5.189415
840.246460	950.034607	1723.154419	986.368652	4.699666
840.549072	951.817871	1781.705078	992.610046	4.915388
840.851563	953.452576	1817.964722	1003.086731	5.741291
841.154053	946.988098	1829.110229	1003.012451	6.351088
841.456482	946.319397	1790.101196	996.919678	5.996844
841.758850	949.440186	1738.089355	985.179871	4.531760
842.061157	949.068665	1681.693481	971.062317	3.002035
842.363403	958.876648	1631.093384	966.381165	1.116383
842.665588	954.715637	1578.709961	965.266602	1.690875
842.967712	949.737305	1535.242798	980.944519	5.329961
843.269775	939.706482	1506.116211	980.498718	7.201895
843.571777	946.170837	1482.339233	975.148926	5.404662
843.873840	953.378174	1466.587280	969.501892	3.141744
844.175659	952.560852	1454.327148	968.833191	3.243011
844.477600	944.981934	1441.175415	975.148865	6.079671
844.779297	942.084167	1424.754517	973.217102	6.450144
845.081116	944.833435	1412.643188	974.703125	6.385008
845.382751	942.752930	1403.355469	964.003479	4.613641
845.684387	945.650696	1394.662109	960.362610	3.276512
845.985962	944.238953	1382.476440	957.539124	3.034923
846.287537	944.759094	1374.228882	968.312988	5.484412
846.588989	946.170898	1366.947144	968.015869	5.191588
846.890381	947.062500	1362.340332	971.879639	5.976033
847.191711	945.427734	1353.201172	970.170715	6.067826
847.493042	942.158447	1340.941162	969.501953	6.856743
847.794250	939.929443	1330.761719	969.130371	7.471473
848.095459	946.765198	1330.538940	968.758850	5.730890
848.396606	945.799316	1338.117676	967.347107	5.492424
848.697693	952.263672	1339.009399	960.659912	2.170998
848.998657	949.440125	1339.232300	956.647461	1.849020
849.299622	951.743469	1332.916504	960.734192	2.358699
849.600464	950.926208	1320.656616	963.632019	3.436507
849.901367	952.337891	1309.882690	963.334778	3.075667
850.202087	953.749756	1298.365723	957.985046	1.228989
850.502808	945.725037	1302.229492	961.477234	4.418513
850.803467	945.725098	1313.151978	972.028259	7.158747
851.104065	941.118225	1309.362671	973.662842	8.837775
851.404663	949.291565	1299.926147	963.483398	4.047471
851.705139	948.102722	1278.824097	948.177002	0.022460
852.005615	953.452454	1280.161621	946.690918	-2.069589
852.306030	947.136780	1289.003662	947.582581	0.130402
852.606384	949.737488	1286.848755	956.127441	1.895503
852.906616	944.090393	1288.334839	967.941589	6.928564
853.206909	954.641357	1279.938599	974.777527	6.190083
853.506958	947.954102	1284.322510	971.582336	7.024511
853.807129	944.461853	1283.282349	953.006653	2.521925
854.107178	939.112061	1281.424805	953.229675	4.124186
854.407166	940.746765	1284.768311	957.019043	4.730017
854.707092	944.016113	1284.025269	966.306946	6.555951
855.007019	937.180237	1291.084106	966.826965	8.377057
855.306763	936.585754	1284.099731	964.300720	7.975209
855.606567	934.282410	1287.443237	974.108643	11.277081
855.906250	938.740662	1279.121216	972.548340	9.932318
856.205933	941.861328	1278.749756	967.347107	7.565050
856.505493	944.313293	1269.090332	955.978821	3.591857
856.805054	948.994385	1271.542480	954.641418	1.750757
857.104492	946.096619	1275.851929	957.390625	3.424966
857.403931	948.697083	1273.994507	951.669250	0.913677
857.703308	943.273010	1266.192749	947.434082	1.288578
858.002563	947.656921	1260.025513	947.359680	-0.095157
858.301819	948.028320	1257.350586	949.737366	0.552513
858.601013	946.319397	1255.270142	953.378235	2.284778
858.900208	954.492676	1256.682007	957.539124	1.008126
859.199219	955.755859	1246.502441	960.882813	1.763375
859.498291	958.579407	1249.474609	961.254395	0.919571
859.797302	951.892151	1245.610840	955.384460	1.188998
860.096191	954.121277	1261.957520	953.898376	-0.072409
860.395020	954.567078	1258.688110	953.081055	-0.488629
860.693787	951.074768	1255.344482	956.424622	1.758260
860.992554	949.885925	1243.010376	956.721863	2.332094
861.291260	949.737305	1246.651123	960.065430	3.478492
861.589844	949.514404	1246.205322	958.505066	3.030312
861.888428	950.406067	1248.657227	959.471008	3.039365
862.186890	946.245117	1253.412598	955.904480	3.144657
862.485413	947.656921	1254.229980	957.316223	3.150734
862.783813	941.266907	1255.790283	952.783752	3.661682
863.082153	948.622864	1247.988525	954.121277	1.836688
863.380371	948.845703	1249.400269	951.520691	0.890017
863.678589	949.960266	1245.164917	958.282227	2.819048
863.976746	937.551758	1240.112427	955.978821	6.090370
864.274902	935.991394	1235.728516	958.950928	7.659890
864.572937	939.112061	1236.397339	947.879822	2.949275
864.870911	954.715637	1238.923584	948.994324	-2.013073
865.168884	955.458679	1244.496216	956.350281	0.308473
865.466736	948.994324	1247.171265	958.950867	3.339139
865.764587	936.139954	1247.765625	956.721863	6.604690
866.062317	934.579590	1245.685181	949.811707	4.896124
866.360107	939.632141	1241.449829	958.282227	6.179255
866.657715	940.152344	1242.861694	961.551575	7.069233
866.955322	945.502136	1241.821411	956.276062	3.635918
867.252808	940.746765	1241.226929	949.811768	3.016839
867.550293	951.743652	1234.614014	947.582581	-1.471017
867.847717	945.650696	1214.626587	953.303955	2.845333
868.145081	954.269836	1211.803101	963.260437	3.491044
868.442383	950.480286	1219.456421	965.415222	5.552514
868.739624	946.022217	1229.932983	967.272766	7.484940
869.036804	936.585754	1228.595581	962.443176	8.854983
869.333984	933.019226	1220.125000	962.071594	10.119047
869.631042	938.071777	1225.994995	962.517395	8.490325
869.928101	947.359680	1228.224121	966.604065	6.851841
870.224976	947.582581	1231.419067	965.192322	6.204185
870.521851	949.811768	1224.657349	965.638184	5.758294
870.818726	948.028503	1226.515015	963.483398	5.549603
871.115479	950.257507	1228.000977	966.158203	5.724957
871.412231	953.824036	1235.431274	965.415222	4.116083
871.708862	941.861267	1230.601563	970.244934	9.830172
872.005493	938.591980	1226.366455	964.672180	9.062722
872.302063	931.384583	1222.279907	960.659851	10.063849
872.598572	942.827209	1225.697754	950.851868	2.836866
872.895020	946.096497	1236.099976	958.802246	4.381240
873.191406	951.817810	1253.115356	963.037598	3.723823
873.487671	946.690918	1256.681885	964.375000	5.704709
873.783997	949.811707	1253.486938	955.310059	1.810603
874.080200	947.656921	1246.428101	951.000488	1.119106
874.376343	949.663086	1249.474487	960.882751	3.742241
874.672424	948.994324	1248.211304	963.037598	4.693341
874.968445	948.697083	1249.771606	962.368835	4.540987
875.264465	946.245178	1240.632446	948.622864	0.807673
875.560364	941.341125	1241.078247	953.972656	4.214203
875.856201	939.855164	1234.093872	960.585632	7.045459
876.152039	937.774597	1237.066040	965.192383	9.160898
876.447754	945.204895	1226.960815	957.241943	4.272154
876.743469	947.211121	1225.846313	956.498840	3.333290
877.039063	951.669250	1230.527344	957.464844	2.078331
877.334595	954.789856	1245.016479	962.963318	2.816234
877.630127	957.464844	1247.468384	959.173828	0.589298
877.925537	956.350342	1246.130981	956.350342	0.000000
878.221008	940.523865	1239.443726	957.316223	5.617679
878.516296	940.969666	1246.130981	961.848694	6.841964
878.811646	942.307129	1259.431030	967.792969	8.036556
879.106812	943.570251	1269.982056	966.381165	6.988385
879.401978	939.037781	1286.997437	959.619629	5.915010
879.697083	937.774597	1314.118042	957.167664	5.153024
879.992126	947.433899	1353.869995	953.229553	1.425969
880.287109	942.752930	1398.154297	954.567078	2.594228
880.582031	941.786926	1467.701782	955.607239	2.627861
880.876892	934.802490	1585.248657	968.981750	5.254741
881.171753	940.969543	1830.521851	989.860840	5.496169
881.466492	944.461914	2236.066162	1019.582031	5.816032
881.761230	948.920105	2805.670898	1057.030518	5.822559
882.055786	945.502136	3357.962891	1085.562744	5.805716
882.350403	942.381409	3753.104736	1105.104370	5.789362
882.644958	941.266785	3829.339111	1098.714355	5.451649
882.939453	941.638367	3641.204834	1090.169556	5.502039
883.233826	941.786926	3274.520752	1068.918945	5.449915
883.528137	938.740662	2882.796875	1051.606445	5.805686
883.822449	943.050110	2529.561768	1034.888306	5.788687
884.116577	938.220520	2236.066162	1022.554016	6.497960
884.410828	942.827332	2010.854492	1009.476807	6.240429
884.704956	941.043945	1831.487793	997.662659	6.358482
884.999023	951.149109	1697.891602	991.421204	5.393036
885.292969	946.988098	1589.112305	992.981628	7.162715
885.586914	951.446289	1512.654785	986.145752	6.182990
885.880798	951.520691	1453.212524	978.343933	5.346558
886.174622	959.099548	1427.801147	971.062317	2.552321
886.468384	948.920105	1413.609253	967.718689	4.045411
886.762085	946.468079	1397.188354	965.489563	4.220242
887.055664	939.409363	1381.139038	968.387390	6.560127
887.349304	947.954102	1359.739868	960.808533	3.121631
887.642822	949.663086	1345.176392	960.214111	2.667679
887.936340	950.703308	1313.151978	955.458679	1.312012
888.229736	944.759094	1288.854980	962.888977	5.268846
888.523071	945.056213	1269.016235	959.991150	4.610117
888.816284	944.536133	1262.180298	952.338074	2.456189
889.109619	951.520691	1244.644897	948.697205	-0.963239
889.402710	948.771484	1233.945313	948.474304	-0.104210
889.695862	951.223450	1215.295288	949.960266	-0.478348
889.988892	942.975891	1212.991821	946.765320	1.403409
890.281921	934.876831	1206.379028	942.678589	2.873552
>>>>>End Processed Spectral Data<<<<<
