Jaz Data File
++++++++++++++++++++++++++++++++++++
Date: Fri Jun 04 11:43:01 2021
User: jaz
Dark Spectrum Present: Yes
Reference Spectrum Present: Yes
Processed Spectrum Present: Yes
Spectrometers: JAZA3586
Integration Time (usec): 32700 (JAZA3586)
Spectra Averaged: 10 (JAZA3586)
Boxcar Smoothing: 1 (JAZA3586)
Correct for Electrical Dark: No (JAZA3586)
Strobe/Lamp Enabled: Yes (JAZA3586)
Correct for Detector Non-linearity: No (JAZA3586)
Correct for Stray Light: No (JAZA3586)
Number of Pixels in Processed Spectrum: 2048
>>>>>Begin Processed Spectral Data<<<<<
W	D	R	S	P
191.335022	0.000000	0.000000	0.000000	0.000000
191.713211	403.835297	413.123077	402.423553	-15.200006
192.091385	811.311340	818.147278	811.014221	-4.346428
192.469528	1227.035034	1231.419067	1217.078613	-227.106415
192.847641	1239.889526	1226.886597	1221.165283	144.000183
193.225739	1250.737671	1243.307495	1234.762573	215.002960
193.603790	1255.344482	1251.777954	1241.524170	387.500427
193.981842	1258.465210	1273.177124	1255.121582	-22.727348
194.359863	1257.573608	1281.276123	1251.926636	-23.824362
194.737854	1264.186523	1280.681763	1253.189575	-66.667404
195.115829	1271.096680	1273.622925	1256.979126	-558.835449
195.493774	1282.242065	1270.576538	1255.715942	227.388977
195.871704	1281.424683	1272.656982	1257.424927	273.729218
196.249603	1276.817993	1278.749878	1256.013062	-1076.924072
196.627457	1269.982178	1276.297852	1259.802612	-161.179398
197.005310	1269.090454	1275.109009	1266.118286	-49.383419
197.383133	1273.994507	1267.158691	1263.369263	155.434921
197.760910	1276.520630	1259.802612	1262.403198	84.444412
198.138687	1275.480469	1264.335083	1257.350708	162.666061
198.516449	1270.353516	1266.044067	1258.836792	267.243591
198.894180	1268.644653	1274.291626	1255.121582	-239.474701
199.271866	1269.759155	1272.582642	1258.316528	-405.265900
199.649536	1270.204956	1278.972778	1260.025513	-116.100021
200.027191	1267.084351	1277.783813	1259.579712	-70.140327
200.404816	1259.951294	1277.189453	1257.350708	-15.086216
200.782410	1252.892456	1284.619751	1256.161865	10.304721
201.159988	1255.641724	1290.563843	1261.808838	17.659622
201.537537	1262.403198	1298.142822	1259.876953	-7.068471
201.915070	1270.279419	1294.130493	1256.533325	-57.633018
202.292557	1269.536377	1303.121094	1251.852173	-52.655510
202.670029	1261.734619	1310.848633	1260.397095	-2.723305
203.047485	1254.081421	1316.941406	1259.728271	8.983220
203.424911	1256.979126	1313.151978	1260.991455	7.142826
203.802292	1257.127563	1309.511230	1255.715942	-2.694773
204.179688	1262.031738	1306.316284	1255.418701	-14.933059
204.557037	1254.601440	1312.631958	1255.121460	0.896114
204.934357	1252.669556	1313.894897	1252.595337	-0.121222
205.311661	1252.446655	1315.158081	1255.418823	4.739436
205.688934	1252.372437	1306.464722	1256.979126	8.516352
206.066177	1249.028809	1301.040649	1256.533203	14.428243
206.443390	1242.192871	1294.799316	1257.127808	28.389936
206.820587	1241.524292	1296.656860	1254.452759	23.449781
207.197769	1240.706909	1299.257324	1259.431030	31.979485
207.574921	1243.456177	1299.554565	1256.310425	22.913755
207.952042	1243.307495	1294.724854	1260.322754	33.092442
208.329147	1252.149536	1292.495850	1255.270142	7.734549
208.706223	1254.006958	1297.994263	1262.403198	19.087872
209.083267	1254.675781	1302.898193	1258.167969	7.241835
209.460297	1252.520996	1306.539063	1259.505249	12.929476
209.837280	1252.669556	1309.659668	1247.245483	-9.517568
210.214264	1252.075195	1309.956909	1247.691284	-7.573914
210.591217	1252.892456	1299.406128	1247.245483	-12.140458
210.968124	1249.400269	1293.907593	1249.920410	1.168665
211.345016	1248.508667	1294.427734	1243.158813	-11.650615
211.721893	1246.428101	1297.548340	1245.685181	-1.453279
212.098724	1249.177368	1288.706421	1245.536499	-9.210616
212.475555	1249.994629	1282.242065	1254.006958	12.442320
212.852356	1252.000854	1298.068481	1251.183594	-1.774046
213.229126	1251.555054	1306.093262	1249.325928	-4.087274
213.605865	1254.972900	1307.505005	1245.536621	-17.962881
213.982590	1256.533325	1294.130493	1245.387939	-29.644217
214.359283	1253.115356	1291.009766	1245.833740	-19.215542
214.735931	1248.434326	1292.941650	1250.886230	5.508991
215.112579	1247.542603	1299.182983	1249.846069	4.460592
215.489197	1249.400269	1301.114868	1250.291992	1.724317
215.865799	1251.034790	1305.944702	1245.908081	-9.336582
216.242355	1249.474609	1304.830200	1247.617065	-3.355657
216.618896	1251.406494	1304.830078	1251.257813	-0.278307
216.995407	1252.000854	1299.926147	1249.920288	-4.341270
217.371902	1251.109253	1292.941650	1247.468384	-8.703467
217.748367	1253.412720	1290.415405	1244.496216	-24.096910
218.124802	1252.892578	1298.588745	1246.799683	-13.333493
218.501236	1253.858398	1297.994141	1248.359985	-12.457960
218.877609	1248.137085	1305.052979	1250.143188	3.524681
219.253983	1253.041138	1299.554565	1249.251587	-8.147219
219.630295	1247.394043	1310.477051	1249.177368	2.826950
220.006592	1252.223755	1309.956909	1248.434326	-6.563696
220.382889	1250.217651	1307.579224	1249.474487	-1.295578
220.759140	1254.155640	1297.697021	1248.508667	-12.969209
221.135391	1255.270142	1298.737305	1251.035034	-9.743234
221.511581	1247.914185	1306.613159	1249.846069	3.291173
221.887772	1245.387939	1320.433472	1252.818115	9.900890
222.263931	1238.106323	1321.845337	1247.096802	10.736308
222.640060	1241.449829	1319.467773	1251.406372	12.761863
223.016159	1244.124878	1310.551392	1249.103149	7.494404
223.392212	1244.793457	1315.604004	1256.533325	16.579266
223.768265	1248.805786	1321.251099	1259.505493	14.769358
224.144302	1245.313599	1332.767944	1263.443481	20.730682
224.520294	1248.359985	1323.405762	1261.511597	17.524786
224.896286	1244.199097	1318.873413	1249.474609	7.064695
225.272217	1251.480835	1311.666016	1252.372437	1.481430
225.648148	1245.982422	1317.981812	1252.595337	9.184682
226.024048	1250.291870	1318.055908	1265.226685	22.039440
226.399902	1244.644897	1325.932007	1261.362915	20.566628
226.775772	1248.582886	1336.928833	1267.901611	21.867132
227.151581	1242.861694	1350.600586	1264.780884	20.344732
227.527374	1243.010254	1354.761597	1272.434082	26.329731
227.903137	1242.861694	1355.801636	1274.663208	28.157898
228.278870	1246.576660	1353.572510	1283.802368	34.791729
228.654572	1247.319702	1362.786133	1277.189453	25.868774
229.030273	1255.195801	1368.953247	1271.691040	14.500360
229.405930	1261.808716	1381.584839	1273.177124	9.491381
229.781555	1265.598267	1386.042969	1280.978882	12.769856
230.157181	1262.774658	1395.628052	1288.854858	19.630812
230.532761	1251.555054	1394.662109	1276.594971	17.497332
230.908325	1249.846069	1391.467163	1277.263672	19.359829
231.283859	1251.926636	1384.631226	1271.765259	14.949463
231.659332	1256.682007	1373.114258	1281.127441	20.995415
232.034821	1258.168091	1369.399048	1273.994385	14.228317
232.410263	1250.960571	1366.575562	1276.000610	21.658125
232.785690	1249.846069	1373.337280	1272.434082	18.291191
233.161087	1251.629395	1368.061646	1273.994507	19.208693
233.536469	1248.657227	1372.594238	1275.926270	22.002340
233.911804	1247.245483	1374.749023	1282.613525	27.738871
234.287140	1248.434448	1386.340210	1281.870483	24.245567
234.662430	1251.629272	1390.649780	1280.384521	20.684177
235.037704	1253.709839	1399.937500	1273.177124	13.312998
235.412933	1249.846069	1402.241089	1278.526978	18.820108
235.788162	1255.864624	1402.538086	1283.207886	18.642269
236.163345	1255.344482	1399.417358	1301.560669	32.078339
236.538513	1254.304321	1399.120117	1303.343872	33.863400
236.913635	1245.239380	1395.776489	1306.761841	40.868633
237.288742	1241.598511	1400.903442	1292.941528	32.229397
237.663834	1244.719116	1399.863281	1295.616577	32.806557
238.038879	1246.353882	1402.612305	1286.848755	25.915321
238.413910	1254.898560	1407.813477	1288.557739	22.011705
238.788910	1248.359985	1420.742188	1287.517578	22.715567
239.163879	1251.257813	1428.544312	1296.210938	25.356203
239.538834	1239.815308	1431.144897	1301.932251	32.465935
239.913757	1241.078247	1442.141602	1304.532715	31.559439
240.288651	1245.016235	1468.147461	1311.814575	29.936796
240.663528	1253.561157	1496.233887	1324.148804	29.087589
241.038361	1254.378540	1520.456543	1335.814331	30.605984
241.413177	1253.561157	1545.496460	1351.566528	33.570923
241.787979	1254.527222	1566.152710	1367.467285	36.242241
242.162735	1257.722168	1600.777710	1386.414429	37.513535
242.537476	1257.202148	1630.647461	1396.668335	37.345814
242.912170	1258.688110	1650.709351	1401.423462	36.410107
243.286865	1260.545654	1653.012695	1409.448364	37.940182
243.661514	1262.774780	1638.746582	1404.172852	37.608692
244.036148	1251.777832	1623.514526	1397.336914	39.156502
244.410751	1249.251587	1607.911011	1387.454712	38.533249
244.785339	1253.115356	1612.369141	1390.426880	38.221317
245.159882	1255.047241	1625.297852	1396.965454	38.330311
245.534378	1255.790405	1655.539063	1401.275024	36.394024
245.908890	1250.663452	1697.594360	1419.330688	37.738995
246.283356	1260.991577	1767.513184	1449.869141	37.289143
246.657791	1257.424927	1842.112915	1491.329956	40.005104
247.032196	1252.818115	1903.412720	1518.227539	40.794899
247.406586	1240.335327	1938.632324	1539.181030	42.796360
247.780960	1243.233154	1949.257690	1549.509155	43.380363
248.155289	1241.969971	1936.626099	1548.914673	44.186569
248.529602	1250.217529	1903.338501	1539.181030	44.243488
248.903870	1247.542603	1852.589722	1510.351563	43.436115
249.278122	1246.205200	1793.147461	1482.339233	43.173485
249.652344	1245.610840	1748.194336	1450.017578	40.671200
250.026550	1248.434448	1710.448608	1432.110718	39.755550
250.400711	1255.121582	1689.346680	1428.321289	39.887077
250.774857	1254.304199	1687.637695	1424.383301	39.249008
251.148987	1256.756104	1713.792358	1437.163208	39.473259
251.523071	1252.520874	1746.634155	1448.531616	39.669189
251.897125	1252.520996	1767.735962	1470.822266	42.370911
252.271164	1246.502441	1771.005249	1471.713989	42.938103
252.645187	1243.456055	1771.896973	1484.419922	45.599018
253.019165	1240.483887	1770.782349	1476.915405	44.584614
253.393112	1241.747070	1759.562866	1472.902832	44.640537
253.767044	1245.462280	1737.123413	1452.692505	42.148994
254.140930	1251.406372	1713.569336	1442.735962	41.398727
254.514801	1256.310425	1698.188843	1434.414063	40.306026
254.888657	1261.437256	1698.040039	1423.417358	37.100109
255.262466	1258.539429	1707.922363	1427.652466	37.632278
255.636276	1260.025513	1728.727173	1443.553223	39.156616
256.010010	1254.229980	1742.918945	1456.704712	41.432228
256.383759	1249.846069	1763.500854	1456.779175	40.286415
256.757446	1243.307373	1792.701660	1472.977173	41.804184
257.131134	1243.901733	1840.106812	1491.850098	41.587765
257.504791	1247.691284	1883.499634	1526.400879	43.835472
257.878418	1250.588989	1950.817871	1549.286133	42.657074
258.252014	1253.338257	2027.721191	1596.393921	44.300518
258.625580	1243.158691	2142.444580	1643.947876	44.567493
258.999115	1249.474487	2266.381592	1710.894531	45.374847
259.372650	1252.000854	2403.841553	1779.252930	45.774738
259.746124	1259.876953	2521.091309	1835.648560	45.652161
260.119598	1248.434204	2597.771729	1874.657593	46.409691
260.493042	1244.421997	2592.793457	1874.583374	46.734997
260.866425	1246.279663	2543.605225	1848.651855	46.431847
261.239838	1253.264038	2430.665039	1792.553223	45.803356
261.613159	1251.629272	2332.957031	1746.039673	45.722530
261.986511	1254.973022	2226.852539	1708.442505	46.659023
262.359802	1250.589233	2173.651611	1687.414673	47.323502
262.733063	1249.103149	2146.754150	1667.501587	46.610367
263.106293	1249.400269	2132.933838	1656.950562	46.127312
263.479523	1250.812012	2116.661621	1647.216919	45.782188
263.852692	1245.239380	2106.482178	1644.393555	46.346302
264.225861	1234.242554	2094.445068	1644.319336	47.672119
264.598969	1241.747070	2104.475830	1634.957153	45.577488
264.972076	1248.211426	2117.553467	1638.969360	44.948700
265.345154	1255.567383	2170.976807	1653.235474	43.441555
265.718201	1253.709839	2216.524414	1682.287964	44.513050
266.091217	1256.310547	2273.663086	1711.340332	44.726852
266.464203	1259.876953	2317.427490	1734.002563	44.832432
266.837158	1257.796387	2356.882324	1757.333618	45.450245
267.210114	1258.093628	2389.649902	1764.764038	44.776421
267.583038	1253.115356	2409.785889	1784.454102	45.936913
267.955902	1249.920410	2427.544189	1791.067017	45.952419
268.328766	1249.697510	2438.838135	1809.419922	47.069489
268.701569	1252.149536	2445.376953	1814.026733	47.088860
269.074371	1249.548950	2456.447998	1823.908813	47.589718
269.447144	1252.446655	2480.299072	1833.642578	47.334347
269.819885	1259.802612	2541.747314	1863.735229	47.110661
270.192596	1248.880127	2640.570068	1916.192871	47.949814
270.565277	1247.765625	2764.432617	1980.984863	48.344116
270.937927	1238.106323	2888.889648	2039.238159	48.530407
271.310577	1252.372437	2975.675049	2086.271729	48.389603
271.683136	1249.400391	3046.857422	2109.305664	47.840103
272.055725	1249.623169	3069.371094	2105.441650	47.029507
272.428284	1247.914185	3061.197998	2094.147705	46.668564
272.800812	1250.960571	3005.768311	2076.909668	47.067783
273.173279	1246.353882	2929.681885	2054.767334	48.024715
273.545776	1248.582886	2884.951904	2030.544800	47.786404
273.918152	1251.332153	2853.521484	2009.962891	47.349632
274.290558	1251.257935	2862.661133	2002.383911	46.613163
274.662964	1248.062866	2850.846680	2001.640991	47.016830
275.035278	1246.576782	2868.605225	2009.219727	47.017853
275.407593	1256.904785	2897.137451	2025.863647	46.881084
275.779907	1253.338257	2950.858398	2053.281494	47.124226
276.152161	1248.360107	3002.647217	2080.327393	47.424809
276.524384	1243.233154	3033.705811	2102.989990	48.018429
276.896606	1240.929688	3057.482666	2118.147705	48.290253
277.268799	1238.031982	3052.281494	2118.221924	48.515373
277.640930	1232.162109	3060.083252	2121.268311	48.640293
278.013031	1235.357056	3071.599854	2117.330322	48.031406
278.385162	1238.700562	3082.745361	2121.491211	47.872517
278.757233	1244.867798	3093.742432	2136.277588	48.213642
279.129272	1247.468384	3123.166260	2146.828369	47.948021
279.501282	1245.610840	3163.364014	2165.775635	47.981400
279.873230	1245.982300	3227.264404	2188.214844	47.556709
280.245178	1246.353882	3304.984619	2237.403564	48.141205
280.617126	1246.651001	3428.178955	2295.731201	48.089241
280.988983	1247.988525	3537.923828	2353.092773	48.259190
281.360870	1247.319702	3639.346924	2395.371094	47.994911
281.732697	1248.359985	3707.408447	2430.516357	48.073734
282.104492	1249.771851	3750.801025	2445.971436	47.828293
282.476288	1256.533325	3773.463623	2463.209717	47.942387
282.848053	1254.750122	3762.615479	2458.602783	48.003086
283.219757	1248.359985	3767.890869	2462.763428	48.199589
283.591461	1244.198975	3740.399170	2442.479248	48.004173
283.963135	1245.536499	3750.578369	2460.906006	48.516930
284.334747	1250.588989	3796.869141	2478.813232	48.236019
284.706360	1248.731567	3884.397705	2525.177979	48.429749
285.077942	1249.177246	3991.096436	2561.883789	47.875465
285.449524	1255.195801	4070.377686	2602.007080	47.841003
285.821014	1256.087524	4108.866211	2617.536377	47.723602
286.192535	1262.626099	4144.902832	2633.288330	47.554844
286.563995	1257.944946	4133.386230	2637.300781	47.970230
286.935425	1256.533325	4118.748535	2637.449219	48.246403
287.306824	1252.595215	4045.262939	2592.421875	47.976585
287.678223	1253.932739	3963.827393	2549.846436	47.821556
288.049561	1256.087524	3918.205078	2519.605225	47.462879
288.420898	1254.304199	3909.585938	2523.840576	47.811741
288.792145	1247.468384	3958.848877	2548.137451	47.970734
289.163452	1246.353882	4039.244385	2593.387939	48.230820
289.534668	1240.855469	4150.327148	2638.118164	48.024620
289.905914	1243.753296	4259.923828	2684.631592	47.771782
290.277039	1253.041016	4366.548340	2730.847900	47.464378
290.648193	1265.301025	4415.661621	2758.414307	47.394997
291.019318	1267.232788	4430.894043	2758.488525	47.137024
291.390381	1254.601440	4363.798340	2724.160645	47.264915
291.761475	1250.143188	4294.177246	2698.526367	47.581043
292.132507	1249.177368	4250.933105	2685.820313	47.860085
292.503510	1253.635620	4249.818359	2681.733887	47.663925
292.874481	1252.298096	4307.997559	2703.133057	47.479637
293.245422	1250.440552	4376.950684	2736.569092	47.533142
293.616364	1252.446655	4513.444824	2807.305420	47.680458
293.987213	1243.976196	4630.322754	2866.004639	47.899067
294.358093	1240.261108	4755.076660	2911.552002	47.549892
294.728943	1234.093872	4861.255371	2951.081299	47.336945
295.099731	1245.387939	4955.545898	3007.774170	47.501648
295.470490	1248.880127	5068.337402	3072.492188	47.745319
295.841248	1256.979126	5146.132324	3116.553467	47.814373
296.211975	1253.858398	5275.864746	3171.612061	47.681519
296.582642	1249.994751	5404.037109	3231.202393	47.693485
296.953308	1240.409668	5463.851074	3261.592529	47.856300
297.323883	1239.443726	5462.067871	3253.196045	47.689594
297.694519	1244.347656	5341.622559	3197.617432	47.672413
298.065063	1244.124756	5235.221191	3144.490967	47.615143
298.435608	1242.267212	5069.228516	3056.590820	47.408985
298.806122	1239.592285	4894.691406	2969.656494	47.332893
299.176575	1247.839966	4724.018066	2881.905273	47.007523
299.547028	1256.458984	4617.319824	2833.608643	46.926956
299.917450	1256.384644	4581.357422	2810.128906	46.729534
300.287872	1255.047241	4569.691895	2814.809814	47.056705
300.658234	1250.291870	4560.775391	2814.141357	47.239307
301.028564	1255.047241	4532.540039	2800.915283	47.166180
301.398865	1245.833618	4508.763184	2777.361572	46.937202
301.769135	1243.753296	4455.116699	2750.686768	46.925037
302.139374	1241.152710	4408.380371	2728.173096	46.950222
302.509583	1255.716064	4365.284668	2703.355713	46.554356
302.879791	1254.675781	4320.108887	2672.222900	46.242962
303.249939	1257.202026	4291.873535	2642.501953	45.649094
303.620087	1254.898682	4251.898926	2634.403076	46.029507
303.990173	1251.332153	4240.604980	2631.282227	46.163403
304.360260	1250.886230	4215.861816	2638.118164	46.787296
304.730286	1247.616943	4220.840332	2628.830322	46.455082
305.100281	1259.579590	4220.394531	2628.012939	46.218132
305.470276	1260.768677	4239.639160	2633.734375	46.090141
305.840179	1255.567505	4236.518066	2639.530029	46.426884
306.210144	1252.743896	4277.235840	2651.567139	46.249859
306.579987	1252.372314	4310.746582	2658.403076	45.973141
306.949890	1253.784058	4358.151855	2690.947510	46.294884
307.319702	1246.502441	4417.073730	2733.151123	46.888985
307.689484	1240.929810	4517.084961	2775.578125	46.842968
308.059265	1247.468384	4625.046875	2827.961670	46.793678
308.429016	1258.019409	4713.318848	2856.196533	46.252930
308.798737	1257.796509	4784.649414	2892.679443	46.355289
309.168396	1256.310547	4848.326660	2900.406494	45.770840
309.538055	1248.285767	4871.583496	2917.942139	46.081123
309.907684	1251.257813	4874.332520	2925.520752	46.211109
310.277313	1247.171143	4882.951660	2931.762451	46.333691
310.646851	1255.567383	4880.425293	2927.527344	46.124840
311.016388	1257.202026	4880.500000	2915.638672	45.771469
311.385895	1255.864502	4805.454102	2883.985596	45.867870
311.755371	1248.285645	4764.810547	2856.122314	45.722317
312.124817	1246.799683	4690.879395	2827.961670	45.909565
312.494232	1246.056641	4670.148926	2808.271240	45.624195
312.863617	1249.623169	4635.226563	2804.184814	45.916824
313.232971	1255.047363	4654.173828	2807.528076	45.672932
313.602295	1255.493164	4725.801758	2849.360596	45.928696
313.971619	1253.858521	4811.546875	2882.871094	45.788509
314.340820	1245.536621	4840.599121	2913.186768	46.387238
314.710083	1247.765625	4831.237305	2899.589111	46.095619
315.079285	1245.907959	4756.637207	2867.490479	46.189335
315.448486	1251.183472	4674.310059	2829.819092	46.116779
315.817596	1249.103027	4553.642090	2771.045654	46.056126
316.186707	1255.641724	4463.290039	2734.117188	46.092190
316.555786	1253.635620	4389.210449	2677.201416	45.400475
316.924866	1259.208252	4335.341309	2656.693848	45.429947
317.293884	1252.149414	4330.956543	2639.752686	45.069508
317.662872	1253.338257	4342.548340	2651.418213	45.256878
318.031830	1248.657227	4387.204102	2663.009521	45.063923
318.400757	1247.245483	4400.504395	2669.993896	45.119938
318.769684	1247.319702	4424.430176	2685.077393	45.253628
319.138550	1242.415894	4428.367676	2688.123779	45.377583
319.507416	1246.428101	4402.956543	2678.836182	45.379223
319.876190	1245.908081	4364.393066	2652.012695	45.089352
320.244995	1257.053345	4297.223145	2631.208008	45.199928
320.613770	1258.911011	4260.443848	2611.814697	45.073761
320.982483	1258.836670	4259.923828	2611.368896	45.068077
321.351166	1257.499390	4304.356934	2614.266846	44.530060
321.719818	1250.812134	4375.167480	2640.941406	44.493313
322.088440	1245.759399	4486.621094	2686.637939	44.459732
322.457062	1252.075195	4640.873535	2755.813477	44.373791
322.825623	1248.062866	4818.457031	2830.710938	44.326984
323.194183	1245.685181	4927.607910	2887.998047	44.604759
323.562653	1232.830688	5006.888672	2919.725342	44.697102
323.931183	1239.072144	5010.083496	2920.245361	44.581497
324.299591	1244.421997	4994.703125	2897.583252	44.080994
324.668060	1246.353882	4925.304688	2872.840576	44.210613
325.036407	1242.861694	4873.738281	2844.605469	44.114521
325.404755	1250.812012	4804.934082	2810.425781	43.881828
325.773102	1249.623169	4740.810547	2769.930908	43.547009
326.141388	1254.006958	4652.019043	2729.213135	43.413799
326.509674	1253.041016	4567.610840	2703.875977	43.771442
326.877899	1248.137085	4491.822266	2672.743164	43.919373
327.246124	1249.846069	4442.633789	2660.631836	44.186646
327.614288	1248.731567	4409.123047	2628.830322	43.668598
327.982422	1259.728394	4396.789063	2632.322510	43.754147
328.350525	1261.437256	4411.054688	2626.601318	43.343807
328.718628	1259.282471	4458.163086	2648.966553	43.442825
329.086700	1260.917114	4509.060547	2666.427490	43.271191
329.454712	1258.539429	4551.784668	2684.037354	43.285511
329.822693	1254.750000	4589.827637	2704.767578	43.477776
330.190674	1253.041138	4632.254395	2708.408447	43.068226
330.558563	1248.359985	4672.304199	2729.584717	43.260773
330.926483	1248.805786	4745.120117	2755.516357	43.094254
331.294312	1240.483887	4834.135254	2792.370361	43.184113
331.662231	1241.598511	4938.456055	2828.110352	42.915150
332.029999	1242.638672	5027.768066	2857.757080	42.670097
332.397766	1249.325806	5094.714844	2886.586670	42.577248
332.765503	1245.908081	5138.851074	2912.592529	42.812969
333.133240	1248.285645	5157.426270	2922.177490	42.819946
333.500916	1246.651001	5151.853516	2919.502197	42.836475
333.868561	1251.926514	5152.373535	2890.449951	42.008606
334.236176	1251.406372	5127.259277	2879.750244	42.012527
334.603790	1245.610840	5102.145020	2864.815674	41.986012
334.971344	1240.186646	5072.126465	2853.373047	42.098427
335.338867	1233.648071	5047.829590	2832.568359	41.920403
335.706360	1235.208374	5034.380859	2830.264648	41.984310
336.073853	1239.815308	5040.622559	2843.044922	42.181293
336.441284	1236.694580	5068.931641	2863.255127	42.444153
336.808655	1239.295166	5103.854004	2867.936523	42.143009
337.176086	1240.335327	5131.419922	2881.236572	42.170795
337.543396	1252.297974	5159.878418	2898.474854	42.127777
337.910706	1256.607544	5169.314453	2905.310791	42.137150
338.277954	1260.174194	5176.001953	2908.877197	42.103565
338.645264	1260.842896	5140.856934	2884.728760	41.852577
339.012421	1255.864624	5103.333984	2863.775391	41.791386
339.379669	1252.595215	5020.040527	2814.884521	41.468136
339.746796	1248.508545	4962.901855	2786.278076	41.400288
340.113953	1248.954468	4892.388184	2767.553467	41.680435
340.481018	1248.805664	4858.654785	2770.376953	42.150551
340.848114	1249.697388	4832.574707	2759.602783	42.142258
341.215118	1247.468384	4872.623535	2767.850586	41.939781
341.582153	1251.109131	5001.019043	2819.119385	41.814610
341.949066	1251.406372	5185.141602	2895.131104	41.785339
342.316010	1257.276367	5433.906738	2994.845459	41.602177
342.682922	1249.103027	5685.271973	3089.061279	41.476288
343.049835	1244.867798	6012.130371	3209.877686	41.218830
343.416656	1240.409546	6306.963379	3333.888672	41.319584
343.783478	1243.901855	6538.564941	3432.414063	41.334305
344.150269	1242.638672	6650.093750	3498.395264	41.715679
344.516998	1246.576660	6658.489746	3508.871826	41.802135
344.883728	1246.130859	6581.884277	3475.807373	41.787472
345.250427	1253.709839	6456.980469	3431.374268	41.851841
345.617065	1247.914185	6312.759277	3362.049805	41.741367
345.983704	1251.034912	6167.869141	3311.523682	41.906818
346.350281	1252.297974	6040.885254	3239.895752	41.506973
346.716827	1256.756226	5904.094238	3181.568359	41.417522
347.083405	1251.926636	5820.578125	3135.872070	41.236359
347.449860	1247.022583	5760.095703	3113.061279	41.347404
347.816376	1243.084473	5749.024902	3126.064209	41.788830
348.182770	1250.291870	5735.946777	3131.488281	41.938057
348.549194	1253.561157	5767.451172	3149.617920	42.004940
348.915558	1254.601440	5844.429199	3162.100830	41.559280
349.281921	1250.960571	5929.728516	3199.549561	41.647480
349.648193	1244.347656	5985.307129	3222.063232	41.715515
350.014526	1246.874023	6012.204590	3239.227295	41.809341
350.380737	1254.601440	6037.765137	3236.180664	41.428215
350.746948	1257.796387	6064.736328	3256.539795	41.580368
351.113159	1254.601440	6123.138672	3278.533203	41.571663
351.479309	1237.140259	6198.184082	3315.684570	41.897320
351.845428	1243.901978	6339.210938	3360.935303	41.548672
352.211517	1247.542847	6452.447754	3418.073975	41.701653
352.577576	1255.047363	6588.719238	3489.255859	41.888752
352.943604	1248.582886	6718.451660	3553.156250	42.132149
353.309601	1246.353882	6873.893066	3625.675537	42.279968
353.675537	1252.298096	7036.467285	3674.343750	41.873703
354.041473	1248.285767	7189.457031	3737.129639	41.891464
354.407379	1243.307495	7297.790527	3776.807373	41.845028
354.773254	1236.174316	7427.375000	3849.029297	42.202717
355.139038	1240.186768	7566.023438	3914.044189	42.268833
355.504913	1251.926636	7827.346191	4012.644287	41.985424
355.870636	1251.480835	8092.160645	4123.578125	41.985554
356.236389	1250.812012	8382.089844	4233.991699	41.832329
356.602081	1237.586060	8659.165039	4363.575684	42.120277
356.967804	1235.505615	8859.187500	4446.349121	42.116707
357.333405	1242.118530	8955.930664	4513.296387	42.406761
357.699036	1248.211426	8933.194336	4519.982910	42.573570
358.064606	1257.722168	8878.877930	4502.521484	42.576210
358.430176	1254.155640	8834.593750	4458.757324	42.274624
358.795654	1262.774658	8892.624023	4464.404297	41.961899
359.161163	1258.316528	9070.430664	4544.205566	42.061459
359.526581	1251.629272	9420.991211	4713.541504	42.376774
359.892029	1246.948242	9933.977539	4942.542480	42.541519
360.257416	1245.982300	10515.841797	5178.527832	42.422924
360.622772	1249.846069	11021.247070	5382.712402	42.295532
360.988098	1244.273315	11325.739258	5514.228027	42.354500
361.353394	1247.468384	11418.247070	5572.853027	42.527569
361.718658	1248.880127	11229.742188	5513.410645	42.727074
362.083893	1250.291870	10800.941406	5334.341309	42.762005
362.449097	1243.530273	10185.937500	5063.284668	42.715057
362.814209	1241.226929	9547.528320	4785.020996	42.663921
363.179382	1241.449829	8957.192383	4526.967773	42.582008
363.544434	1246.799683	8545.926758	4342.474121	42.411572
363.909546	1252.595215	8267.663086	4219.354492	42.291241
364.274536	1259.282593	8089.263184	4148.989746	42.309155
364.639587	1258.911133	7943.554688	4093.114014	42.398712
365.004517	1248.582886	7856.769531	4066.067627	42.636280
365.369507	1242.341431	7804.312012	4039.913330	42.633102
365.734344	1245.164917	7811.370605	4026.018799	42.351006
366.099274	1254.304199	7800.299316	4018.440186	42.226368
366.464081	1255.047241	7775.333496	4002.687500	42.139870
366.828918	1254.378418	7686.765137	3993.771240	42.587502
367.193665	1247.839844	7615.285645	3953.573486	42.493233
367.558411	1249.846069	7542.915527	3930.688232	42.599918
367.923126	1244.942017	7459.622559	3881.425781	42.423481
368.287781	1249.920410	7408.576172	3844.199951	42.124119
368.652435	1247.988525	7378.557129	3807.419922	41.748680
369.017059	1251.406372	7424.922363	3822.428955	41.646000
369.381653	1246.725342	7456.353027	3839.593018	41.755604
369.746185	1249.697388	7529.614746	3865.896484	41.659771
370.110687	1246.428101	7614.766113	3865.078857	41.119850
370.475220	1242.935913	7698.728027	3906.688477	41.261436
370.839661	1244.719116	7742.937500	3946.589111	41.578629
371.204041	1245.090698	7772.361816	3982.625977	41.939964
371.568451	1247.394165	7769.166504	3959.740967	41.589104
371.932770	1238.403442	7767.160645	3936.855469	41.331787
372.297150	1239.295166	7715.223145	3901.635742	41.111340
372.661377	1236.991821	7748.213379	3916.273438	41.148678
373.025696	1244.942139	7785.513184	3924.818359	40.973122
373.389862	1244.867798	7876.162598	3954.465088	40.860756
373.754059	1247.988403	7944.595215	3964.570313	40.566544
374.118225	1248.359985	8044.309082	3991.839111	40.369328
374.482361	1249.251587	8193.879883	4043.331055	40.233681
374.846436	1254.155640	8406.015625	4113.250000	39.976933
375.210510	1248.582886	8727.746094	4229.608398	39.857738
375.574524	1248.211304	9053.860352	4359.563477	39.860260
375.938538	1247.468384	9388.074219	4486.101074	39.783684
376.302460	1244.050415	9648.357422	4579.128418	39.682964
376.666412	1245.536621	9811.377930	4610.780762	39.286789
377.030304	1243.530396	9796.962891	4600.453125	39.246498
377.394196	1250.960571	9651.701172	4539.524902	39.146126
377.757996	1254.750000	9408.434570	4452.219238	39.215023
378.121796	1247.319702	9112.040039	4334.969238	39.259495
378.485565	1239.889404	8825.974609	4215.639160	39.226421
378.849304	1234.614014	8622.384766	4122.314941	39.087582
379.212982	1242.044312	8499.116211	4067.851318	38.938667
379.576630	1244.421997	8433.953125	4032.780273	38.783592
379.940277	1247.542603	8413.668945	4004.322266	38.469593
380.303864	1251.183472	8401.038086	3974.155029	38.084293
380.667450	1257.127808	8418.870117	3953.573242	37.650688
381.030945	1255.493164	8415.452148	3945.474365	37.569786
381.394501	1254.081299	8492.503906	3950.972900	37.257999
381.757935	1255.864624	8557.815430	3977.053467	37.266602
382.121399	1251.629272	8644.006836	4013.313232	37.358536
382.484741	1252.966797	8782.209961	4065.250244	37.351475
382.848145	1252.149414	8924.648438	4106.637207	37.204147
383.211487	1253.189819	9072.659180	4141.856445	36.941978
383.574768	1253.709839	9137.155273	4163.404297	36.908916
383.938019	1252.297974	9181.364258	4176.333496	36.877426
384.301270	1256.830566	9196.374023	4179.825195	36.815651
384.664459	1257.276245	9219.184570	4184.135254	36.760773
385.027649	1254.824341	9235.234375	4188.519043	36.761204
385.390778	1248.137207	9340.892578	4226.784668	36.806347
385.753876	1249.474609	9420.024414	4258.214844	36.824207
386.116943	1251.257813	9535.491211	4265.124512	36.380756
386.479980	1252.446655	9572.715820	4244.097168	35.956173
386.842987	1249.251587	9623.391602	4229.756348	35.591774
387.205994	1252.372437	9631.787109	4227.602051	35.506409
387.568909	1252.743896	9621.385742	4229.087891	35.565437
387.931793	1250.663452	9562.538086	4191.342285	35.379246
388.294678	1248.211426	9519.813477	4168.011230	35.299088
388.657471	1253.784180	9495.887695	4137.918457	34.992695
389.020294	1258.539551	9545.595703	4159.763672	35.009102
389.383057	1257.053467	9703.415039	4205.014160	34.902138
389.745819	1250.366211	9918.299805	4270.177734	34.838886
390.108521	1247.617065	10178.582031	4344.777344	34.678898
390.471191	1248.805786	10465.686523	4420.714844	34.414127
390.833801	1251.777954	10704.420898	4482.237793	34.175205
391.196442	1248.657227	10865.508789	4506.163086	33.872894
391.558960	1247.839966	10885.497070	4506.088379	33.807476
391.921509	1246.502441	10839.726563	4474.138184	33.644951
392.284027	1241.970093	10792.395508	4451.772949	33.609001
392.646484	1239.815308	10765.201172	4430.597168	33.497665
393.008911	1238.626465	10738.674805	4409.940918	33.382088
393.371307	1245.685059	10743.875977	4387.501465	33.078049
393.733673	1241.895630	10714.824219	4350.869629	32.819565
394.096008	1249.548828	10638.514648	4313.792969	32.636654
394.458344	1246.799683	10508.633789	4260.443848	32.538307
394.820587	1250.737793	10270.270508	4177.299316	32.446930
395.182831	1250.366333	10065.195313	4079.293701	32.092819
395.545013	1248.805786	9788.937500	3978.093506	31.958378
395.907196	1246.205200	9622.945313	3893.388428	31.601589
396.269287	1243.381714	9517.138672	3847.543701	31.474966
396.631409	1250.291870	9491.652344	3824.137939	31.230841
396.993469	1255.864624	9469.063477	3808.162842	31.075569
397.355530	1254.898682	9478.277344	3798.726563	30.934095
397.717499	1251.777954	9524.643555	3794.862549	30.740068
398.079468	1249.103027	9549.906250	3795.605713	30.677788
398.441376	1248.582886	9528.358398	3787.729736	30.666859
398.803284	1244.942017	9478.797852	3752.510498	30.454365
399.165131	1238.700684	9482.586914	3721.600586	30.118074
399.526978	1240.484009	9509.781250	3686.158203	29.575359
399.888763	1249.400269	9526.277344	3679.842529	29.364244
400.250519	1261.585938	9504.358398	3684.449219	29.393791
400.612244	1265.003784	9512.383789	3678.504883	29.263851
400.973938	1263.889282	9582.971680	3690.467529	29.168821
401.335602	1257.499268	9702.152344	3686.009521	28.757963
401.697205	1253.115356	9870.893555	3733.489014	28.782053
402.058807	1241.449951	10025.962891	3756.151123	28.626530
402.420349	1239.146606	10268.264648	3802.442139	28.389212
402.781860	1239.443726	10481.959961	3835.209717	28.085058
403.143341	1241.301147	10696.545898	3878.082031	27.886963
403.504822	1241.375488	10853.101563	3929.796143	27.970215
403.866241	1240.929688	10996.208008	3953.721924	27.808456
404.227631	1242.118530	11115.687500	3951.270264	27.438425
404.588959	1246.502441	11149.867188	3928.681885	27.083515
404.950287	1247.839966	11067.984375	3888.261475	26.887806
405.311554	1254.155640	10983.502930	3851.778564	26.698841
405.672821	1255.790161	10861.645508	3802.367432	26.510675
406.034027	1260.397095	10753.089844	3766.702148	26.402470
406.395203	1252.297974	10558.788086	3703.693359	26.340710
406.756348	1246.502441	10455.210938	3657.105469	26.177427
407.117493	1245.239258	10406.913086	3625.006836	25.975248
407.478516	1253.784058	10458.553711	3616.387695	25.667166
407.839600	1260.025513	10495.780273	3608.139893	25.424173
408.200592	1257.499146	10620.831055	3608.808594	25.111889
408.561554	1255.790283	10773.151367	3627.681641	24.921732
408.922485	1252.892578	10947.835938	3652.573242	24.751879
409.283417	1250.886353	11035.217773	3664.684570	24.670040
409.644257	1248.731567	11119.476563	3679.025146	24.621176
410.005096	1251.332153	11194.448242	3672.337891	24.348562
410.365906	1250.812134	11206.708008	3656.808594	24.166552
410.726715	1254.155762	11163.315430	3622.183594	23.897362
411.087433	1256.533325	11074.152344	3591.867920	23.787178
411.448120	1256.904785	11006.239258	3550.332764	23.523945
411.808807	1253.041016	10968.940430	3518.679688	23.318878
412.169434	1251.480713	10950.140625	3486.209229	23.041620
412.530029	1255.715942	11024.815430	3485.317627	22.823000
412.890564	1261.957397	11142.288086	3479.076172	22.439720
413.251099	1258.390991	11296.614258	3497.428955	22.305122
413.611572	1257.647827	11460.971680	3517.267822	22.145922
413.972076	1252.372314	11598.655273	3548.400635	22.191818
414.332489	1248.062866	11701.043945	3563.409424	22.150108
414.692871	1246.130981	11906.639648	3585.923584	21.948225
415.053223	1241.226929	12089.944336	3611.334961	21.846895
415.413574	1247.171265	12404.987305	3649.600830	21.531361
415.773834	1243.158813	12597.133789	3676.349854	21.430302
416.134094	1241.672729	12895.905273	3710.603516	21.184841
416.494263	1242.192749	13157.674805	3750.132568	21.047741
416.854462	1256.533325	13571.688477	3812.992920	20.758646
417.214630	1266.118286	13996.700195	3881.425781	20.543505
417.574738	1261.882935	14460.350586	3950.229736	20.368628
417.934784	1250.143188	14940.569336	4029.362061	20.300455
418.294861	1244.867676	15489.518555	4122.537598	20.201759
418.654846	1245.239258	16104.668945	4225.224121	20.054504
419.014832	1246.651001	16730.000000	4323.452637	19.871681
419.374756	1249.771729	17380.373047	4432.454102	19.730711
419.734680	1257.276245	18072.353516	4540.639160	19.526300
420.094543	1255.641724	18675.097656	4622.000488	19.325283
420.454376	1253.784180	19024.765625	4656.773926	19.149139
420.814148	1246.056641	19215.279297	4663.609863	19.018927
421.173920	1245.759399	19328.291016	4686.421387	19.027546
421.533691	1241.524170	19451.486328	4683.151855	18.899696
421.893341	1245.462280	19458.767578	4665.021973	18.775064
422.253021	1248.434204	19398.880859	4598.966797	18.459780
422.612640	1248.211426	19316.181641	4572.664063	18.399702
422.972260	1245.090698	19353.630859	4550.447266	18.253025
423.331757	1244.421997	19483.882813	4552.899414	18.139118
423.691315	1246.948242	19673.353516	4546.806641	17.908312
424.050781	1245.536499	19659.978516	4527.636230	17.823509
424.410248	1248.657227	19441.751953	4479.190918	17.756924
424.769653	1256.013184	19108.429688	4399.835449	17.610065
425.128998	1256.087524	18733.722656	4312.678223	17.488585
425.488373	1246.428101	18267.843750	4206.425781	17.389843
425.847656	1238.849243	17824.554688	4106.562500	17.290272
426.206940	1238.923462	17377.029297	4009.671875	17.168983
426.566193	1247.394043	17001.501953	3924.669678	16.994144
426.925385	1251.480713	16565.716797	3837.958252	16.889366
427.284576	1249.846069	16153.262695	3743.742432	16.733723
427.643677	1247.914185	15820.164063	3685.340576	16.726492
428.002777	1242.935913	15626.976563	3624.561279	16.557415
428.361847	1245.833618	15459.870117	3575.669922	16.391096
428.720856	1238.403442	15258.362305	3514.816162	16.236942
429.079865	1239.592285	15094.895508	3487.472412	16.223970
429.438812	1239.146484	15031.664063	3470.605713	16.178766
429.797760	1244.867676	15015.688477	3460.723633	16.090952
430.156616	1249.548828	14889.596680	3413.838623	15.867171
430.515503	1251.926514	14782.006836	3384.786133	15.763836
430.874268	1258.167969	14759.195313	3354.916260	15.530287
431.233093	1254.601440	14876.221680	3358.111328	15.442434
431.591827	1246.799683	15062.721680	3368.513672	15.357019
431.950562	1237.140259	15216.975586	3383.225586	15.351294
432.309204	1238.849365	15356.441406	3387.089600	15.216762
432.667877	1248.062866	15523.696289	3385.751953	14.974389
433.026459	1250.217529	15619.546875	3375.126953	14.787812
433.385010	1245.387817	15707.668945	3363.089844	14.642933
433.743561	1244.719116	15695.706055	3353.950439	14.595760
434.102051	1243.976074	15716.213867	3337.529541	14.465997
434.460510	1255.270142	15720.078125	3328.390625	14.332169
434.818939	1257.722046	15681.812500	3304.613525	14.190784
435.177338	1260.619995	15659.149414	3291.907959	14.107607
435.535675	1257.424927	15620.808594	3286.557861	14.127123
435.894012	1252.297974	15646.815430	3275.635498	14.056307
436.252289	1249.697510	15796.906250	3286.483643	14.001216
436.610535	1249.994629	15897.734375	3272.737549	13.809249
436.968719	1252.372314	16186.402344	3298.520752	13.701247
437.326935	1252.075073	16484.654297	3323.189209	13.596609
437.685028	1247.096802	16818.568359	3353.950439	13.530214
438.043152	1242.044189	17039.693359	3379.807861	13.532163
438.401215	1240.260864	17339.580078	3396.897705	13.395825
438.759277	1244.644897	17734.646484	3452.921875	13.391611
439.117249	1251.703613	18298.976563	3500.921143	13.194001
439.475250	1255.715942	18699.021484	3542.753906	13.111266
439.833130	1252.446655	19135.701172	3569.799805	12.958229
440.191071	1254.081421	19267.585938	3574.926758	12.883919
440.548889	1256.013184	19354.521484	3586.294922	12.875546
440.906708	1260.396973	19236.972656	3562.295654	12.804990
441.264496	1260.397095	19031.378906	3533.763428	12.792575
441.622223	1263.963623	18786.775391	3472.463623	12.603570
441.979950	1263.517822	18494.023438	3427.807617	12.560802
442.337616	1256.310425	18302.023438	3395.337158	12.548767
442.695251	1250.886353	18057.345703	3369.256836	12.604503
443.052887	1245.313599	17951.091797	3340.947266	12.544366
443.410461	1248.434326	18015.509766	3320.068359	12.355369
443.768005	1243.679077	18256.625000	3331.659424	12.272892
444.125458	1245.164917	18570.775391	3352.984375	12.165916
444.482941	1247.691284	18958.189453	3391.176514	12.102908
444.840393	1259.282593	19492.724609	3426.990234	11.888637
445.197754	1262.403198	19945.525391	3455.002197	11.735721
445.555084	1253.635376	20312.505859	3472.017822	11.639631
445.912415	1244.496216	20523.230469	3499.509766	11.696897
446.269714	1250.291870	20683.054688	3508.500000	11.620622
446.626953	1260.174194	20684.615234	3498.915039	11.525380
446.984161	1259.282471	20516.021484	3461.020752	11.433599
447.341309	1251.629272	20271.937500	3428.698975	11.446028
447.698456	1245.462280	19946.861328	3396.451904	11.501759
448.055542	1251.183472	19719.646484	3365.838867	11.450089
448.412598	1252.743774	19363.734375	3316.650391	11.395880
448.769653	1252.966675	19047.947266	3249.926514	11.222040
449.126617	1252.223755	18586.898438	3171.834717	11.073822
449.483582	1253.338379	18259.298828	3135.277344	11.066349
449.840515	1252.520996	17921.296875	3096.565674	11.062868
450.197388	1251.926636	17699.427734	3070.262939	11.055395
450.554230	1249.326050	17601.126953	3040.021484	10.951059
450.911041	1250.737671	17560.927734	3026.944336	10.890165
451.267822	1240.929688	17654.773438	3025.235352	10.870736
451.624573	1239.740845	17689.472656	3012.232422	10.775200
451.981262	1235.134155	17668.814453	2992.244873	10.692132
452.337921	1246.502441	17487.888672	2963.266846	10.570307
452.694580	1240.781250	17152.634766	2924.778076	10.583285
453.051147	1250.812012	16908.177734	2898.623291	10.524193
453.407715	1251.926514	16541.939453	2859.094482	10.511228
453.764221	1259.876953	16433.011719	2830.933594	10.354199
454.120728	1255.567383	16111.281250	2781.373779	10.270839
454.477142	1258.167969	16022.340820	2763.243896	10.194109
454.833557	1261.140137	15867.867188	2748.680420	10.183940
455.189911	1258.242310	15871.656250	2747.268799	10.189450
455.546265	1251.183594	15969.140625	2735.751953	10.086782
455.902557	1252.000854	16033.414063	2724.160645	9.959534
456.258820	1256.681885	16287.082031	2737.163818	9.849916
456.615051	1263.666382	16556.875000	2753.361572	9.740893
456.971252	1265.969727	16917.763672	2794.896729	9.768382
457.327393	1256.979126	17501.412109	2842.227539	9.758718
457.683502	1254.081421	18184.994141	2900.183594	9.722466
458.039612	1245.982300	19151.599609	2965.867432	9.605283
458.395630	1254.675659	20081.574219	3038.981445	9.477428
458.751648	1249.994629	20897.044922	3111.500732	9.474735
459.107605	1247.765503	21627.365234	3169.234131	9.428392
459.463562	1244.496216	21835.935547	3186.249268	9.429904
459.819458	1243.976074	21726.931641	3161.135010	9.359777
460.175323	1251.406372	21124.337891	3107.191406	9.338255
460.531158	1250.812012	20404.939453	3033.854248	9.308919
460.886932	1258.539429	19627.287109	2965.718750	9.293934
461.242676	1250.291870	18891.392578	2892.530518	9.309161
461.598419	1252.743774	18337.615234	2835.689209	9.265188
461.954102	1246.651001	17802.560547	2773.497803	9.222367
462.309723	1252.520874	17331.109375	2725.944092	9.163884
462.665344	1258.836670	16943.472656	2681.213623	9.068601
463.020905	1254.304199	16746.869141	2658.254150	9.062089
463.376373	1247.765503	16744.638672	2643.319336	9.005390
463.731873	1235.431274	16764.476563	2642.799072	9.062810
464.087341	1237.066162	16807.720703	2634.477295	8.974647
464.442749	1244.050659	16906.916016	2641.015869	8.918963
464.798126	1248.805908	17034.494141	2648.148926	8.864631
465.153503	1255.047241	17222.998047	2670.217041	8.862563
465.508820	1255.195801	17382.824219	2685.968994	8.871566
465.864105	1249.771729	17480.976563	2676.532471	8.790233
466.219330	1238.329102	17697.421875	2675.715088	8.733081
466.574524	1227.555298	17726.845703	2666.724609	8.722613
466.929657	1228.892700	17636.197266	2666.427490	8.761554
467.284790	1236.991699	17456.828125	2645.473877	8.683702
467.639893	1243.307495	17228.201172	2618.130615	8.600765
467.994934	1240.558228	17074.171875	2595.319580	8.556236
468.349945	1237.586304	16829.642578	2569.462402	8.542017
468.704926	1237.957642	16687.500000	2542.936279	8.446714
469.059875	1239.443726	16530.498047	2519.902588	8.373908
469.414764	1241.672729	16466.003906	2520.125244	8.397429
469.769653	1241.969971	16412.505859	2515.221191	8.392921
470.124451	1244.199097	16493.568359	2509.128662	8.294963
470.479248	1245.908081	16523.662109	2503.778809	8.233349
470.834015	1250.217529	16594.767578	2506.528076	8.187341
471.188721	1251.555054	16795.906250	2527.555664	8.208774
471.543365	1250.217529	17069.416016	2546.280029	8.192972
471.898010	1241.152588	17352.064453	2551.555420	8.133636
472.252625	1244.793457	17588.716797	2554.676270	8.014494
472.607178	1236.768799	17799.068359	2556.459473	7.968040
472.961700	1239.443726	17862.447266	2563.666748	7.966208
473.316193	1239.666626	17940.169922	2569.908447	7.965280
473.670654	1253.189575	17961.345703	2559.357422	7.817546
474.025055	1255.121460	18098.435547	2555.790771	7.722169
474.379456	1251.852173	18159.363281	2555.419189	7.709987
474.733795	1241.895630	18269.404297	2563.220947	7.759945
475.088104	1243.678833	18545.513672	2588.038086	7.770039
475.442383	1253.115234	18882.998047	2603.196045	7.657911
475.796570	1253.263916	19190.759766	2631.282471	7.682335
476.150787	1244.867798	19580.921875	2659.294434	7.713909
476.504944	1231.790405	19960.607422	2682.922607	7.748126
476.859070	1235.282715	20361.396484	2689.907227	7.605437
477.213135	1242.861694	20637.951172	2693.993896	7.481956
477.567200	1249.697388	20909.232422	2705.139404	7.403237
477.921173	1253.263916	21158.888672	2718.736572	7.362103
478.275146	1253.784180	21393.312500	2735.826172	7.358872
478.629089	1256.310303	21668.531250	2747.640381	7.306065
478.983002	1250.886230	22130.546875	2777.212891	7.310112
479.336823	1248.954468	22651.037109	2799.132080	7.243116
479.690643	1242.490112	23352.603516	2843.490967	7.241034
480.044403	1246.428101	24246.240234	2907.836914	7.223576
480.398163	1246.279541	25445.265625	2980.356445	7.165907
480.751862	1247.617065	27115.216797	3093.519531	7.135963
481.105499	1247.691284	29357.822266	3225.481201	7.035861
481.459137	1248.657227	32655.525391	3438.506836	6.972518
481.812744	1246.873901	37012.121094	3735.866455	6.959249
482.166290	1247.839844	42177.199219	4118.971191	7.014845
482.519806	1245.982300	47278.675781	4526.373535	7.126220
482.873291	1249.846069	51445.269531	4874.035645	7.220160
483.226715	1252.669556	54138.000000	5109.352051	7.292537
483.580139	1254.601440	55107.875000	5188.558594	7.304955
483.933502	1255.715942	54493.839844	5111.061523	7.241701
484.286804	1251.480835	52532.843750	4907.249023	7.128843
484.640106	1253.041016	49733.484375	4663.461914	7.034632
484.993347	1253.486938	46826.984375	4415.810547	6.938953
485.346558	1256.904907	44675.324219	4240.308105	6.871285
485.699738	1250.663452	43699.281250	4122.017578	6.764305
486.052887	1250.737793	43888.457031	4119.788574	6.728903
486.405975	1242.490112	44789.082031	4161.843750	6.703977
486.759064	1247.096802	45903.175781	4240.010742	6.702143
487.112061	1244.124634	46471.074219	4264.382324	6.678005
487.464996	1251.777832	46198.980469	4246.771973	6.663361
487.817963	1256.681763	44921.792969	4164.519043	6.659407
488.170868	1256.830444	43077.375000	4026.538330	6.622841
488.523743	1253.263916	40840.121094	3869.537109	6.608944
488.876587	1248.731445	38910.253906	3722.640625	6.568798
489.229401	1254.081177	37600.222656	3633.923096	6.547715
489.582153	1256.161743	37364.312500	3604.053467	6.502387
489.934845	1256.161743	37990.238281	3630.430908	6.463396
490.287537	1261.288696	39260.664063	3698.566406	6.413994
490.640198	1264.260620	40621.292969	3768.634033	6.363217
490.992798	1260.025391	41356.371094	3811.506592	6.363376
491.345337	1244.050415	41163.707031	3792.262451	6.383351
491.697876	1234.391113	39805.300781	3704.733643	6.404678
492.050354	1243.976196	37794.453125	3570.840088	6.366165
492.402832	1258.613647	35130.031250	3400.760986	6.324351
492.755219	1269.684814	32380.755859	3236.477783	6.321843
493.107605	1262.700317	29854.015625	3071.822998	6.327526
493.459930	1254.378540	27942.650391	2939.415771	6.313774
493.812225	1251.926514	26629.500000	2843.194092	6.270369
494.164490	1256.979126	25831.193359	2792.445313	6.248282
494.516724	1258.762329	25434.267578	2777.361328	6.281560
494.868896	1250.812012	25416.656250	2768.370850	6.279768
495.221039	1249.251587	25633.177734	2773.423096	6.250722
495.573120	1250.812012	25893.531250	2779.070313	6.201663
495.925201	1261.808716	26186.583984	2782.116943	6.099586
496.277222	1261.883179	26423.531250	2791.999023	6.081143
496.629211	1259.133911	26528.896484	2788.358154	6.051598
496.981140	1251.703613	26411.498047	2781.150635	6.078933
497.333069	1255.270142	26056.478516	2761.237549	6.072153
497.684967	1247.691284	25622.552734	2735.380615	6.103375
498.036804	1244.496216	25087.125000	2710.563232	6.148932
498.388580	1241.821411	24592.568359	2672.222900	6.125721
498.740326	1249.846069	24114.203125	2644.805420	6.101021
499.092072	1248.508545	23647.880859	2610.923340	6.082379
499.443756	1245.833618	23216.626953	2581.796875	6.080633
499.795410	1244.124634	22839.541016	2552.818604	6.060054
500.147003	1249.177368	22519.962891	2534.614502	6.043205
500.498566	1251.109253	22217.626953	2524.360840	6.072785
500.850098	1252.892456	22021.916016	2513.661133	6.070428
501.201599	1254.527222	21890.250000	2502.887451	6.049510
501.553009	1254.527222	21842.771484	2493.153564	6.016182
501.904449	1252.520874	21802.423828	2482.156982	5.983659
502.255859	1246.873901	21864.169922	2475.172363	5.957612
502.607178	1243.753174	21926.880859	2464.695557	5.903084
502.958405	1239.815063	22007.796875	2464.695557	5.897927
503.309692	1236.991699	22022.583984	2470.639893	5.935112
503.660919	1238.403442	22146.966797	2484.757568	5.960975
504.012115	1242.638672	22140.798828	2481.488037	5.928031
504.363251	1250.960571	22144.884766	2472.125977	5.844596
504.714294	1251.629395	21995.908203	2458.974365	5.820135
505.065369	1257.945068	21957.568359	2458.899902	5.801820
505.416443	1267.084229	21841.134766	2446.194092	5.731053
505.767395	1271.542480	21802.351563	2440.621338	5.694266
506.118317	1263.517700	21741.496094	2435.866211	5.724923
506.469238	1253.709839	21892.478516	2445.896729	5.776443
506.820160	1254.527100	22043.537109	2451.023682	5.755428
507.170929	1253.041138	22290.818359	2463.580811	5.754123
507.521729	1257.127808	22496.931641	2472.868896	5.723881
507.872498	1249.697388	22754.984375	2495.977295	5.795226
508.223236	1253.858398	23027.750000	2508.385498	5.761612
508.573883	1249.920288	23265.443359	2514.478516	5.743939
508.924500	1257.647827	23507.896484	2509.946045	5.628244
509.275116	1257.053345	23678.197266	2513.661377	5.604567
509.625702	1252.966797	23910.541016	2524.732178	5.612981
509.976196	1252.000854	24030.466797	2541.673096	5.661804
510.326660	1250.886230	24222.835938	2557.722412	5.688835
510.677124	1264.409302	24386.451172	2568.793701	5.641303
511.027557	1258.093628	24634.322266	2559.877197	5.568835
511.377869	1266.861450	24803.361328	2552.818604	5.463672
511.728180	1262.774780	24825.578125	2548.583252	5.456942
512.078430	1262.923340	24799.650391	2564.038330	5.528020
512.428650	1255.790405	24692.654297	2555.716553	5.546502
512.778931	1247.022583	24548.802734	2546.502930	5.576743
513.129028	1249.251587	24353.755859	2532.311035	5.553287
513.479126	1254.824341	24167.849609	2519.233887	5.518300
513.829285	1254.527222	24032.099609	2511.357666	5.517842
514.179382	1254.824341	23919.458984	2496.719971	5.479443
514.529297	1249.251587	23883.125000	2498.948975	5.521359
514.879272	1247.394043	23994.726563	2507.047852	5.537589
515.229187	1245.536499	24138.279297	2520.051025	5.567330
515.579163	1245.239258	24565.890625	2534.985840	5.530491
515.928955	1248.359985	25105.476563	2556.979248	5.485236
516.278748	1248.657227	25856.453125	2582.316650	5.419662
516.628540	1251.406372	26615.677734	2622.440186	5.405375
516.978333	1255.418823	27507.460938	2664.421143	5.367210
517.327942	1255.864624	28407.119141	2717.844727	5.384577
517.677612	1257.647827	29184.326172	2762.500977	5.388587
518.027222	1258.093628	29651.986328	2789.175781	5.392294
518.376831	1255.715942	29800.888672	2780.779297	5.342631
518.726379	1248.805908	29587.494141	2763.095459	5.343542
519.075867	1245.165039	29020.115234	2727.429932	5.336697
519.425293	1247.542847	28275.826172	2700.235352	5.374712
519.774658	1249.846069	27500.404297	2665.535889	5.392989
520.124084	1252.000854	26850.476563	2634.328857	5.400040
520.473389	1251.035034	26358.146484	2602.007080	5.380834
520.822693	1251.109253	26057.369141	2576.446777	5.342754
521.171997	1244.347656	25904.603516	2558.242676	5.327986
521.521240	1240.706909	25890.115234	2566.118896	5.377054
521.870361	1236.917358	25969.765625	2568.050537	5.382046
522.219482	1238.106323	26175.509766	2576.149658	5.365608
522.568604	1243.307495	26469.005859	2576.521240	5.285141
522.917664	1249.474731	26907.912109	2591.455811	5.230175
523.266724	1256.013306	27573.146484	2627.641357	5.211921
523.615662	1258.019409	28453.333984	2678.315674	5.222577
523.964600	1260.917236	29579.466797	2744.593994	5.239240
524.313538	1263.443481	30792.978516	2806.710938	5.226182
524.662354	1255.641724	32131.765625	2876.332764	5.249011
525.011169	1256.533325	33444.250000	2941.644531	5.235262
525.359985	1251.183472	34770.035156	3006.288086	5.236172
525.708740	1261.363037	36142.183594	3053.916016	5.139079
526.057434	1250.514893	37824.097656	3119.525391	5.110275
526.406067	1247.839966	39926.792969	3233.134033	5.132750
526.754700	1239.889526	42777.562500	3387.906982	5.171252
527.103333	1248.508667	46056.542969	3581.019531	5.205564
527.451782	1246.576782	49562.589844	3756.671143	5.195160
527.800293	1250.366333	52148.699219	3928.236328	5.261214
528.148743	1246.874023	53610.750000	4039.690430	5.333479
528.497131	1254.081299	53559.925781	4057.151611	5.359000
528.845642	1250.143188	52255.390625	3973.189453	5.338758
529.193909	1246.799683	49807.265625	3805.116943	5.268313
529.542175	1246.502441	46423.519531	3603.681885	5.217652
529.890503	1245.462280	42848.816406	3402.767578	5.185411
530.238770	1247.171143	39608.550781	3232.614502	5.175631
530.586914	1243.381714	37406.964844	3108.751709	5.158145
530.934998	1246.576782	36253.558594	3029.322021	5.092542
531.283142	1239.072266	36207.042969	3019.588135	5.091848
531.631226	1237.883423	36926.816406	3059.860596	5.105160
531.979248	1228.966919	38191.453125	3131.042236	5.145962
532.327148	1240.484009	39443.378906	3181.271240	5.080210
532.675110	1241.747192	40369.265625	3231.425537	5.085113
533.023071	1252.372437	40571.289063	3223.326172	5.012736
533.370850	1249.994507	39916.832031	3188.180908	5.012529
533.718689	1256.087402	38631.472656	3118.336670	4.982555
534.066467	1253.784058	36898.730469	3042.770752	5.018907
534.414246	1255.270142	35308.800781	2969.805664	5.034824
534.761963	1256.904785	34026.332031	2896.245850	5.002654
535.109619	1260.174072	33406.949219	2858.796875	4.972887
535.457153	1260.322754	33177.875000	2839.924072	4.949005
535.804749	1251.852173	33210.792969	2847.131592	4.991653
536.152344	1247.394165	33158.035156	2842.153320	4.997578
536.499817	1244.942139	32850.050781	2828.927734	5.011802
536.847229	1246.353882	32157.025391	2783.751221	4.973678
537.194641	1253.858398	31208.107422	2750.909424	4.997792
537.542114	1256.161743	30266.841797	2704.916260	4.993866
537.889404	1254.824341	29612.382813	2683.368408	5.037613
538.236694	1248.211426	29273.341797	2653.721680	5.015178
538.583984	1244.570679	29430.865234	2658.625732	5.016818
538.931213	1250.589111	30163.265625	2686.489258	4.966334
539.278381	1258.093628	31669.382813	2760.569092	4.940519
539.625488	1264.335083	33707.503906	2850.029297	4.887606
539.972595	1264.855103	36317.238281	2962.672607	4.843658
540.319641	1266.489746	38767.667969	3068.033936	4.803967
540.666687	1261.511475	40710.015625	3166.781982	4.829766
541.013611	1256.458984	41757.609375	3222.509033	4.854307
541.360596	1251.257813	41828.199219	3243.016602	4.908597
541.707458	1254.452881	41045.937500	3198.360596	4.885235
542.054260	1251.183472	39525.703125	3132.156982	4.914427
542.401062	1250.812012	37709.300781	3036.009033	4.896520
542.747864	1251.777954	35774.457031	2945.731445	4.906785
543.094666	1254.155640	33857.152344	2847.205811	4.886208
543.441284	1250.960571	32077.748047	2767.999268	4.921170
543.787903	1247.765503	30613.833984	2697.634521	4.937225
544.134460	1248.434326	29362.353516	2639.975586	4.949652
544.481079	1250.440552	28484.468750	2592.421875	4.927590
544.827637	1252.000854	27888.710938	2571.691406	4.954405
545.174072	1252.372437	27566.013672	2554.378662	4.948028
545.520508	1252.075195	27459.240234	2553.710205	4.966714
545.866943	1248.805786	27341.541016	2543.382080	4.961443
546.213318	1245.685181	27249.109375	2531.493408	4.944765
546.559631	1248.657227	26931.837891	2506.973877	4.899380
546.905823	1246.353760	26427.546875	2471.531494	4.865448
547.252136	1247.988403	25667.578125	2435.791748	4.864141
547.598389	1243.010132	24776.318359	2381.625244	4.838313
547.944458	1241.747070	23822.119141	2330.653564	4.822359
548.290588	1245.462280	22876.171875	2296.548584	4.859232
548.636658	1242.861694	22007.724609	2265.415771	4.924444
548.982727	1245.685181	21283.939453	2233.539795	4.929844
549.328735	1241.078369	20729.937500	2194.307861	4.891151
549.674622	1245.982300	20311.242188	2181.824951	4.908628
550.020569	1250.514771	20068.197266	2176.920898	4.923062
550.366455	1249.994751	19921.304688	2178.258545	4.971605
550.712280	1253.189697	19910.974609	2169.713867	4.912288
551.058044	1257.424927	19980.669922	2168.004639	4.863365
551.403748	1267.530151	20109.511719	2161.466064	4.744383
551.749512	1265.969727	20292.666016	2168.822021	4.745187
552.095154	1255.715942	20462.523438	2179.298828	4.808623
552.440735	1247.245483	20563.351563	2188.735107	4.874117
552.786316	1245.313599	20558.001953	2184.722900	4.864208
553.131897	1250.291870	20362.289063	2165.924072	4.790876
553.477417	1256.830566	20059.060547	2146.977051	4.734260
553.822815	1263.071899	19630.482422	2126.989746	4.703537
554.168213	1258.242188	19239.650391	2109.231201	4.732605
554.513672	1253.412598	18890.873047	2102.469727	4.813942
554.859009	1246.130981	18620.039063	2101.652344	4.924173
555.204285	1252.223755	18383.013672	2093.776367	4.912515
555.549500	1256.161865	18188.638672	2083.894043	4.888430
555.894714	1260.099854	18051.326172	2057.739502	4.750336
556.239990	1254.824341	17964.169922	2047.485718	4.743821
556.585022	1263.740601	17873.966797	2036.265991	4.650902
556.930115	1264.037842	17757.830078	2037.454956	4.689140
557.275146	1265.375366	17602.462891	2034.185547	4.705919
557.620178	1248.657227	17508.693359	2030.173218	4.806361
557.965149	1252.372437	17403.111328	2025.046509	4.784141
558.310059	1253.486938	17393.376953	2018.210571	4.738097
558.654968	1259.802612	17378.365234	2022.891602	4.734225
558.999756	1249.697388	17416.185547	2009.219727	4.698128
559.344604	1245.016479	17444.642578	2009.814087	4.721082
559.689331	1242.861694	17478.080078	2006.321899	4.702494
560.033997	1241.821411	17521.623047	2023.411743	4.800982
560.378723	1250.514893	17603.578125	2039.906860	4.827181
560.723389	1254.229980	17633.150391	2032.625366	4.752422
561.067932	1253.189697	17696.457031	2032.773804	4.741054
561.412476	1245.759399	17657.447266	2023.040039	4.736141
561.757019	1241.821289	17609.224609	2020.662476	4.758490
562.101501	1241.375610	17520.804688	2007.808105	4.707982
562.445862	1236.025757	17426.068359	2002.904297	4.736730
562.790222	1239.592285	17377.251953	1998.966187	4.705601
563.134644	1248.731567	17366.255859	2002.755737	4.678288
563.478943	1248.582886	17462.476563	2008.179688	4.684851
563.823181	1244.421997	17609.818359	2014.272461	4.704136
564.167358	1237.957642	17818.089844	2022.371460	4.731047
564.511536	1247.914185	18120.798828	2030.247437	4.636630
564.855774	1259.356812	18493.949219	2043.547729	4.550098
565.199768	1269.387695	18876.162109	2055.064453	4.462355
565.543823	1264.632324	19163.119141	2065.987061	4.477221
565.887817	1254.155640	19367.228516	2082.110840	4.571037
566.231812	1244.644897	19368.564453	2085.157227	4.637586
566.575745	1246.205200	19251.091797	2078.618652	4.623264
566.919617	1242.564453	19028.779297	2062.940674	4.612427
567.263428	1247.171265	18732.236328	2043.993530	4.557159
567.607239	1250.514771	18501.525391	2036.414673	4.555675
567.950989	1253.412598	18272.376953	2023.411743	4.524359
568.294678	1248.954468	18184.402344	2027.572632	4.597565
568.638367	1251.257813	18099.548828	2011.300293	4.511096
568.981995	1253.784180	18108.984375	2012.117798	4.499108
569.325623	1258.985352	18176.822266	2005.356079	4.411739
569.669128	1257.202026	18287.013672	2026.458008	4.517114
570.012573	1251.480713	18489.562500	2039.906738	4.573746
570.356140	1248.582886	18772.359375	2060.488525	4.633166
570.699524	1248.731445	19069.570313	2063.980713	4.574696
571.042908	1255.195801	19384.539063	2075.498047	4.524721
571.386230	1256.384766	19561.306641	2077.206787	4.484160
571.729492	1255.938843	19673.429688	2084.785889	4.500326
572.072815	1251.109253	19613.318359	2072.302979	4.472195
572.416016	1249.623169	19512.042969	2073.343018	4.510464
572.759094	1245.387817	19349.244141	2078.172852	4.600042
573.102234	1245.982300	19138.001953	2065.987061	4.583076
573.445374	1251.034912	18966.662109	2050.977783	4.515465
573.788391	1253.858398	18833.808594	2035.374390	4.445496
574.131409	1255.270142	18778.824219	2036.563110	4.458530
574.474365	1246.130981	18721.091797	2029.355957	4.481984
574.817261	1248.137207	18619.740234	2027.424194	4.485982
575.160156	1249.177368	18445.056641	2028.390015	4.531392
575.502930	1248.359985	18195.029297	2013.678101	4.516038
575.845703	1248.805786	17890.609375	1993.839233	4.476880
576.188477	1251.480591	17490.634766	1967.313110	4.408065
576.531250	1259.431030	17103.220703	1960.551636	4.425208
576.873901	1257.127686	16727.177734	1939.300903	4.409638
577.216431	1248.434204	16437.025391	1924.811890	4.453196
577.559082	1247.988403	16096.125000	1909.208374	4.453218
577.901611	1243.604614	15794.307617	1890.038452	4.442629
578.244080	1246.353760	15466.409180	1880.081665	4.456578
578.586487	1250.886230	15246.992188	1868.564819	4.413218
578.928955	1256.607544	15013.011719	1891.450073	4.614887
579.271301	1257.127686	14839.812500	1894.793823	4.694699
579.613647	1249.697388	14628.644531	1882.310913	4.728426
579.955872	1243.307495	14475.135742	1852.812866	4.606358
580.298157	1250.440552	14383.074219	1830.447632	4.416533
580.640320	1243.530396	14329.577148	1826.063843	4.451561
580.982483	1246.725342	14281.280273	1822.794312	4.419552
581.324524	1238.700684	14227.633789	1832.602173	4.572365
581.666626	1250.217529	14175.992188	1829.333008	4.480316
582.008728	1249.251587	14118.184570	1823.611694	4.463153
582.350647	1253.264038	14064.464844	1813.060913	4.369589
582.692566	1248.954468	13987.859375	1814.026733	4.435799
583.034424	1251.703735	13911.327148	1812.392090	4.428950
583.376343	1249.920410	13814.362305	1805.407593	4.421105
583.718201	1247.468384	13761.085938	1805.630493	4.460438
584.059937	1244.942139	13708.851563	1796.416992	4.424574
584.401611	1247.617065	13651.342773	1802.286743	4.471799
584.743347	1253.932739	13630.612305	1796.045288	4.380113
585.085022	1258.985352	13602.674805	1795.673828	4.347878
585.426514	1263.072021	13572.284180	1786.609009	4.253213
585.768127	1258.390991	13533.276367	1784.677124	4.287503
586.109619	1257.722168	13525.102539	1783.191040	4.283464
586.451172	1260.619995	13563.144531	1784.008301	4.254316
586.792542	1264.260864	13598.735352	1778.584351	4.169805
587.133850	1256.607544	13631.875000	1776.652344	4.202291
587.475220	1247.245483	13684.109375	1775.983765	4.251379
587.816589	1243.307373	13768.442383	1783.116699	4.309809
588.157776	1247.616943	13910.583008	1795.673828	4.328030
588.498962	1248.211426	14028.206055	1801.395142	4.328513
588.840210	1246.725464	14103.696289	1806.670776	4.355188
589.181335	1255.121460	14125.096680	1802.583984	4.253796
589.522400	1254.452759	14130.593750	1800.503540	4.240796
589.863403	1261.362915	14091.213867	1800.131958	4.199340
590.204407	1257.722168	14016.761719	1793.667603	4.200516
590.545410	1260.248413	13949.295898	1787.574829	4.155760
590.886353	1254.155640	13831.452148	1774.125977	4.134198
591.227112	1252.446655	13721.854492	1773.531616	4.178907
591.567932	1248.583008	13612.777344	1777.098145	4.274562
591.908752	1251.852173	13563.514648	1771.748413	4.222795
592.249512	1252.223755	13603.340820	1767.513184	4.172007
592.590149	1254.229980	13621.324219	1771.896973	4.185842
592.930786	1253.189575	13723.862305	1784.231323	4.258325
593.271423	1250.886353	13840.070313	1793.296265	4.308539
593.612000	1250.440552	14035.859375	1792.553101	4.240084
593.952576	1248.805786	14188.699219	1798.348633	4.246889
594.292969	1242.638672	14308.622070	1790.621094	4.193962
594.633484	1238.700806	14441.104492	1796.268188	4.223227
594.973877	1240.558350	14665.647461	1799.091675	4.160370
595.314209	1248.954468	14936.852539	1826.212280	4.217286
595.654480	1249.994751	15278.348633	1841.147095	4.213983
595.994812	1245.833740	15612.637695	1855.264648	4.241938
596.335022	1245.313599	15911.557617	1869.976563	4.259188
596.675171	1248.657227	15991.878906	1877.332397	4.264164
597.015320	1254.750000	15894.541992	1874.880493	4.235924
597.355408	1249.325806	15575.782227	1855.413208	4.230546
597.695496	1252.446655	15162.510742	1831.190430	4.160612
598.035461	1250.366089	14664.532227	1811.128906	4.180378
598.375366	1250.812012	14204.823242	1787.872070	4.145897
598.715271	1243.604614	13797.198242	1767.141602	4.170415
599.055176	1241.672729	13434.155273	1754.881714	4.209225
599.395081	1243.678955	13166.367188	1753.024048	4.272066
599.734802	1252.744019	12937.886719	1744.627808	4.209480
600.074524	1247.765625	12822.495117	1742.695923	4.275956
600.414246	1247.542725	12764.018555	1736.083130	4.242100
600.753906	1241.672852	12813.578125	1739.426758	4.301400
601.093506	1247.022583	12886.618164	1741.953125	4.252128
601.433044	1249.920288	13037.898438	1741.209961	4.167718
601.772583	1250.737671	13253.153320	1756.367676	4.212735
602.112122	1255.641724	13591.082031	1759.265503	4.082738
602.451538	1251.034912	13954.496094	1782.670898	4.184969
602.790894	1255.195801	14350.679688	1794.559204	4.118698
603.130310	1250.143188	14791.590820	1809.716919	4.132304
603.469604	1256.979126	15165.260742	1826.138062	4.092231
603.808838	1257.870728	15540.489258	1837.803345	4.060408
604.148010	1248.657227	15805.750000	1850.286499	4.132895
604.487305	1241.970093	15943.877930	1850.211914	4.137162
604.826416	1233.127930	15860.659180	1849.023071	4.210520
605.165527	1243.901855	15549.182617	1843.450317	4.191099
605.504456	1241.821411	15174.622070	1824.949219	4.185288
605.843445	1244.793457	14659.036133	1801.989746	4.153767
606.182434	1246.874023	14173.690430	1779.104492	4.117259
606.521423	1251.109131	13695.997070	1765.506958	4.133407
606.860229	1253.486816	13355.691406	1757.630859	4.165720
607.199036	1254.378540	13141.105469	1749.680298	4.166847
607.537903	1257.870728	13116.510742	1746.411133	4.119700
607.876648	1262.254517	13235.916992	1747.674194	4.054062
608.215271	1262.774658	13428.210938	1748.565918	3.993209
608.553955	1260.099731	13680.765625	1761.717407	4.038573
608.892578	1252.892456	13882.422852	1769.816772	4.092981
609.231140	1254.155640	14027.165039	1773.011719	4.062129
609.569641	1252.818237	13994.100586	1766.547363	4.032005
609.908081	1254.824341	13873.135742	1765.729858	4.048922
610.246521	1249.697388	13612.109375	1768.182007	4.194041
610.584961	1253.709839	13290.601563	1750.497925	4.127213
610.923340	1252.669556	12913.070313	1727.686890	4.073765
611.261597	1250.960571	12525.507813	1705.693237	4.033268
611.599854	1239.889526	12214.030273	1696.925415	4.164662
611.938110	1247.394043	11922.168945	1682.064819	4.071943
612.276245	1253.709839	11705.575195	1679.538574	4.074189
612.614319	1265.672485	11482.073242	1671.959839	3.976815
612.952393	1256.533325	11338.520508	1671.216797	4.113112
613.290466	1257.350708	11227.958008	1658.734009	4.025665
613.628479	1250.589233	11098.671875	1649.297485	4.048587
613.966370	1254.750122	10988.257813	1645.805176	4.017617
614.304260	1249.325928	10858.004883	1651.898071	4.189672
614.642151	1250.068970	10809.485352	1649.223267	4.175509
614.979980	1245.685059	10774.042969	1639.118042	4.129075
615.317749	1241.375488	10756.061523	1624.183105	4.023335
615.655396	1246.279541	10720.098633	1624.926147	3.996768
615.993164	1253.338257	10683.467773	1638.226440	4.081473
616.330811	1256.161987	10707.468750	1653.161133	4.200469
616.668396	1253.338379	10714.898438	1651.452148	4.207697
617.005859	1247.914185	10750.860352	1649.074585	4.221432
617.343445	1244.347656	10736.668945	1644.765137	4.218330
617.680908	1245.685181	10736.149414	1652.789673	4.289617
618.018311	1254.750122	10712.075195	1649.817749	4.177372
618.355652	1269.090454	10685.176758	1653.161255	4.078879
618.692993	1270.502319	10639.035156	1646.325317	4.011546
619.030273	1264.557983	10625.661133	1641.569946	4.027431
619.367554	1259.654053	10604.781250	1632.505249	3.989793
619.704712	1262.849121	10605.895508	1640.529785	4.042371
620.041870	1256.161743	10560.200195	1646.251099	4.192689
620.379028	1248.657227	10483.222656	1650.857910	4.355383
620.716064	1240.186646	10453.204102	1636.740601	4.304279
621.053040	1248.359985	10453.798828	1629.978882	4.145581
621.389954	1247.914185	10465.909180	1623.365845	4.073030
621.726929	1247.171021	10421.476563	1627.452515	4.145071
622.063843	1238.031982	10366.046875	1626.486694	4.255632
622.400635	1245.016357	10354.529297	1627.080933	4.194128
622.737427	1254.081421	10373.403320	1630.276001	4.125247
623.074219	1261.140137	10390.121094	1632.728149	4.070422
623.410889	1258.539429	10438.268555	1639.935547	4.154764
623.747559	1254.601440	10481.661133	1640.529785	4.182571
624.084167	1254.898560	10567.407227	1640.455444	4.140204
624.420715	1256.087524	10676.112305	1642.461548	4.101624
624.757324	1255.195923	10819.961914	1646.919800	4.095489
625.093750	1255.641724	11003.340820	1658.882690	4.136781
625.430176	1255.344482	11225.133789	1670.399536	4.163128
625.766602	1256.087524	11426.941406	1684.517090	4.212327
626.102905	1252.149414	11590.629883	1702.869751	4.359638
626.439209	1246.725464	11670.729492	1700.046387	4.348818
626.775452	1246.428101	11743.543945	1693.953491	4.263318
627.111694	1247.394043	11729.352539	1683.699707	4.162444
627.447876	1249.177246	11648.883789	1686.671875	4.206798
627.783997	1243.827515	11503.027344	1694.176270	4.389706
628.120056	1242.935913	11356.799805	1697.742798	4.496866
628.456055	1241.821411	11191.996094	1686.300171	4.467045
628.792053	1249.251587	10993.980469	1671.291016	4.330951
629.128052	1252.297974	10804.953125	1647.514282	4.137240
629.463928	1249.474487	10646.540039	1645.508179	4.214440
629.799744	1242.638672	10524.757813	1647.588501	4.362687
630.135559	1239.072266	10407.657227	1650.857788	4.491266
630.471375	1245.610840	10281.936523	1642.907593	4.396662
630.807068	1248.657227	10218.258789	1637.409058	4.334104
631.142700	1257.202026	10168.624023	1644.839355	4.349893
631.478333	1260.694214	10122.036133	1640.232544	4.283080
631.813965	1255.195923	10065.789063	1645.136597	4.425817
632.149475	1247.096802	10018.607422	1639.192383	4.470103
632.484924	1243.010254	10005.604492	1647.811523	4.619651
632.820435	1247.468384	9991.338867	1644.022095	4.535220
633.155884	1244.421997	9992.452148	1645.582397	4.585722
633.491150	1242.564453	10014.372070	1645.805176	4.597008
633.826477	1247.765625	10008.353516	1635.254272	4.423090
634.161804	1249.474609	10014.817383	1627.081055	4.307949
634.497009	1254.229858	9971.053711	1621.656860	4.215147
634.832153	1245.908081	9906.039063	1623.440063	4.359426
635.167297	1250.960571	9802.833008	1626.560913	4.392025
635.502380	1251.629395	9727.935547	1629.087036	4.453091
635.837463	1254.675781	9646.500000	1629.532837	4.466932
636.172424	1252.744019	9571.454102	1627.229614	4.501727
636.507324	1251.480835	9472.185547	1626.560913	4.562627
636.842224	1251.629517	9395.133789	1626.263672	4.600405
637.177124	1254.898804	9276.100586	1619.130493	4.540862
637.511963	1251.406616	9199.866211	1613.557739	4.556243
637.846741	1256.236084	9121.550781	1609.768433	4.494828
638.181396	1252.149536	9072.659180	1610.140015	4.577585
638.516113	1254.006958	8996.127930	1606.201782	4.549074
638.850769	1252.966675	8911.497070	1605.607422	4.604548
639.185303	1256.830444	8816.834961	1604.344360	4.596742
639.519836	1256.904785	8743.275391	1600.406250	4.588358
639.854370	1253.412598	8696.316406	1594.833618	4.587202
640.188843	1252.223755	8664.216797	1594.313477	4.615354
640.523254	1253.041016	8626.100586	1600.109009	4.707245
640.857605	1250.217651	8559.301758	1595.130859	4.718966
641.191895	1247.468384	8511.450195	1589.112305	4.703259
641.526184	1245.982300	8449.036133	1581.830688	4.662583
641.860413	1252.966797	8409.879883	1580.641724	4.578439
642.194580	1253.041016	8371.761719	1576.109375	4.538292
642.528748	1249.548828	8350.659180	1581.682007	4.677201
642.862793	1243.158813	8339.588867	1590.375488	4.892836
643.196838	1236.694458	8284.084961	1599.068970	5.141967
643.530823	1237.214478	8273.237305	1597.582886	5.121763
643.864746	1240.558228	8224.940430	1600.332031	5.151118
644.198669	1246.279419	8230.438477	1601.446655	5.085326
644.532532	1260.694214	8184.519043	1600.555054	4.908571
644.866333	1263.517700	8194.327148	1591.044312	4.725662
645.200073	1263.889282	8197.967773	1587.551758	4.667707
645.533813	1256.013184	8222.487305	1592.158691	4.825189
645.867554	1251.183594	8227.540039	1602.561035	5.036690
646.201172	1251.703613	8227.465820	1600.703491	5.003036
646.534729	1248.954468	8232.889648	1594.016235	4.940793
646.868225	1253.041016	8222.190430	1600.555054	4.986463
647.201782	1255.418823	8253.546875	1612.591919	5.103838
647.535217	1257.870850	8248.866211	1613.855103	5.092040
647.868591	1254.824341	8260.678711	1611.774536	5.095027
648.201965	1254.898804	8242.624023	1614.300903	5.143335
648.535278	1253.115479	8226.425781	1620.839478	5.273306
648.868591	1255.121582	8227.985352	1620.245117	5.236350
649.201782	1253.264038	8213.125977	1617.867554	5.238660
649.534912	1249.028687	8234.674805	1618.610474	5.290588
649.868103	1245.759399	8216.766602	1612.591797	5.262258
650.201172	1247.839844	8218.252930	1610.511353	5.203013
650.534180	1258.316528	8181.621094	1615.415527	5.157927
650.867188	1259.431030	8175.230957	1619.650757	5.208649
651.200134	1254.081177	8176.791504	1625.297852	5.362302
651.533020	1245.536499	8199.231445	1625.669312	5.466630
651.865845	1251.852173	8199.602539	1630.721802	5.453126
652.198608	1253.784058	8173.225098	1627.749634	5.404563
652.531433	1250.514771	8108.507324	1622.622925	5.425905
652.864136	1250.291870	8068.829590	1623.514282	5.473643
653.196777	1358.253784	8126.636719	1729.321655	5.482371
653.529358	1368.804688	8079.529297	1734.374146	5.447541
653.861938	1362.191772	8018.303223	1730.510376	5.533540
654.194519	1256.087524	7830.020996	1628.418335	5.663744
654.526978	1255.047241	7773.476563	1624.257446	5.664098
654.859375	1257.796509	7716.931641	1624.183105	5.672379
655.191833	1255.270142	7706.975098	1622.399902	5.690430
655.524170	1242.044189	7728.152344	1622.399902	5.864159
655.856445	1236.768677	7763.668457	1623.142944	5.919721
656.188660	1239.295044	7790.342285	1626.858032	5.916046
656.520874	1246.873901	7819.841309	1628.046875	5.799100
656.853088	1251.555054	7870.738281	1635.031372	5.793408
657.185181	1254.898560	7953.066406	1643.576172	5.802745
657.517212	1254.006958	8071.356934	1659.179688	5.943258
657.849243	1253.264038	8231.627930	1663.266479	5.875338
658.181274	1250.663452	8452.158203	1673.371460	5.869726
658.513123	1250.589111	8646.310547	1690.758423	5.951675
658.844971	1247.022583	8803.981445	1715.278320	6.196352
659.176819	1248.582886	8901.911133	1722.857300	6.196970
659.508667	1248.508667	8978.071289	1722.114136	6.127196
659.840393	1249.697388	8975.991211	1715.426880	6.027851
660.172058	1254.973022	8880.289063	1719.736450	6.095006
660.503662	1251.480835	8719.499023	1712.083374	6.167668
660.835266	1254.081421	8546.893555	1702.721191	6.151808
661.166931	1245.982300	8381.569336	1682.287964	6.114503
661.498413	1246.725464	8228.133789	1677.161011	6.165454
661.829773	1241.672729	8048.470215	1665.495483	6.226463
662.161194	1242.564453	7841.908691	1666.907227	6.430075
662.492615	1240.855469	7666.108887	1658.213867	6.495595
662.823975	1242.415894	7540.462891	1661.111694	6.648026
663.155212	1236.694580	7466.605957	1657.619507	6.756516
663.486450	1244.421997	7377.368652	1656.356079	6.716740
663.817627	1257.499146	7306.781250	1653.904297	6.552929
664.148743	1261.585815	7260.341797	1645.879517	6.406223
664.479858	1259.802612	7207.513184	1637.631958	6.352518
664.810913	1254.155640	7166.274902	1634.957031	6.441031
665.141907	1251.703613	7130.386719	1637.929077	6.569932
665.472778	1243.976196	7118.646484	1636.220215	6.676868
665.803711	1245.239380	7121.321777	1637.706421	6.679060
666.134583	1247.839966	7103.042969	1632.059204	6.562014
666.465454	1253.264038	7102.076660	1632.430786	6.482799
666.796143	1244.793457	7075.253418	1634.585571	6.685443
667.126831	1249.251587	7052.442871	1646.325317	6.842334
667.457458	1248.434326	7039.736816	1658.362427	7.078340
667.788147	1249.548706	7032.380859	1667.204468	7.222340
668.118774	1239.815063	7053.779785	1661.631836	7.255234
668.449219	1247.319824	7069.087402	1667.130249	7.211048
668.779663	1247.171265	7078.300293	1659.774292	7.075869
669.110107	1247.468384	7066.040527	1663.192017	7.144771
669.440552	1242.713013	7053.482910	1661.111694	7.200400
669.770874	1240.409668	7046.201172	1660.665894	7.238569
670.101135	1252.372437	7033.123535	1662.077515	7.087402
670.431396	1256.236206	7000.431152	1659.179688	7.014795
670.761597	1259.356812	6925.533691	1665.866821	7.174326
671.091797	1253.486938	6852.122559	1666.164185	7.371032
671.421875	1248.508667	6774.476074	1668.096191	7.593015
671.751892	1250.291870	6751.219238	1663.043579	7.503312
672.081909	1250.366211	6719.269531	1658.957031	7.471166
672.411865	1254.378540	6689.845215	1659.254272	7.448776
672.741821	1247.394165	6645.264160	1659.699829	7.638303
673.071716	1241.970093	6632.929688	1668.913452	7.919617
673.401550	1241.152710	6604.025879	1671.142456	8.017899
673.731262	1247.839966	6601.722656	1671.811157	7.918948
674.060974	1248.508667	6563.531250	1664.455444	7.825871
674.390625	1242.192993	6553.276855	1663.043457	7.924003
674.720276	1245.462280	6524.818848	1666.981567	7.984293
675.049927	1251.480835	6516.423340	1674.411743	8.032964
675.379395	1257.722168	6500.670410	1683.848267	8.127604
675.708923	1258.316528	6500.225098	1689.123657	8.218516
676.038330	1251.034912	6479.865723	1693.507446	8.462170
676.367737	1255.270142	6456.609375	1692.021484	8.396901
676.697083	1258.093750	6431.866699	1692.838989	8.402866
677.026428	1254.155640	6448.881348	1696.628418	8.517732
677.355652	1244.570557	6489.525391	1701.012207	8.702489
677.684875	1238.626343	6545.029785	1700.417603	8.702528
678.013977	1249.771606	6602.391113	1702.349609	8.455262
678.343079	1260.099731	6681.151855	1704.727417	8.201871
678.672180	1254.601440	6737.324219	1713.049316	8.361683
679.001221	1248.285645	6817.645996	1716.169922	8.401042
679.330139	1248.880005	6906.066406	1730.659058	8.516231
679.659058	1254.898560	6990.027832	1752.503906	8.676445
679.987976	1260.768555	7064.330566	1771.005371	8.791787
680.316772	1249.623169	7070.646484	1774.497559	9.016874
680.645630	1247.394043	7070.200684	1777.172485	9.098335
680.974304	1246.502441	7022.795410	1774.794922	9.145874
681.302979	1239.592285	7005.780762	1769.296387	9.186382
681.631653	1237.734741	6963.205078	1751.537964	8.973991
681.960266	1233.722290	6920.257813	1753.692871	9.143890
682.288757	1241.004028	6838.450684	1754.584473	9.175262
682.617249	1239.146484	6754.860840	1757.110718	9.390701
682.945679	1238.329102	6658.044434	1744.627930	9.341798
683.274109	1240.558228	6579.877441	1734.225586	9.245886
683.602478	1251.926392	6476.299316	1735.562988	9.257314
683.930725	1259.505371	6361.947266	1735.934570	9.337278
684.259033	1259.282593	6254.876953	1738.312134	9.589040
684.587280	1259.579712	6184.735840	1731.550659	9.582863
684.915344	1258.539551	6151.299316	1726.795288	9.570381
685.243469	1263.443481	6101.144531	1723.377319	9.507281
685.571533	1252.223877	6057.603027	1717.284546	9.677918
685.899536	1255.790405	6023.646973	1714.535156	9.621614
686.227539	1259.059570	6022.606934	1706.882202	9.401032
686.555420	1259.802612	6042.892090	1708.516724	9.381261
686.883301	1253.041138	6054.408203	1724.566040	9.820639
687.211121	1242.341431	6068.823730	1747.302734	10.462305
687.538940	1243.604736	6075.732910	1759.414063	10.674580
687.866638	1239.666626	6102.036621	1746.485474	10.423288
688.194336	1244.793579	6084.798340	1741.432983	10.261134
688.521973	1248.211426	6046.012207	1734.968750	10.145426
688.849609	1256.607544	5973.938965	1734.522827	10.131051
689.177063	1253.784058	5929.803223	1727.241211	10.125218
689.504578	1257.573608	5876.453125	1727.463989	10.173255
689.832031	1250.291992	5840.490723	1725.829468	10.359845
690.159485	1249.548950	5773.320801	1727.389648	10.562882
690.486816	1244.570557	5736.467285	1722.931641	10.649424
690.814087	1251.109253	5676.951172	1729.247192	10.803322
691.141296	1248.359985	5647.304688	1727.909790	10.901473
691.468506	1243.084473	5596.183594	1728.727051	11.156249
691.795715	1247.914185	5542.166016	1716.318481	10.907704
692.122803	1257.499146	5478.265625	1714.980957	10.838832
692.449829	1257.647827	5448.172852	1710.819946	10.814209
692.776855	1249.177246	5411.095703	1714.683716	11.184901
693.103821	1245.462158	5376.024902	1713.494995	11.330971
693.430664	1248.880249	5341.028320	1712.677734	11.333839
693.757568	1245.239258	5309.672363	1714.089478	11.535439
694.084351	1247.245483	5304.768555	1712.306274	11.461692
694.411133	1249.400269	5273.041016	1715.946899	11.595137
694.737854	1253.338257	5282.998047	1716.912964	11.504066
695.064575	1242.713013	5286.416016	1721.073853	11.829771
695.391174	1242.044312	5310.861816	1719.736450	11.740319
695.717773	1241.895630	5331.963379	1715.798462	11.586674
696.044250	1253.784180	5366.142578	1723.303101	11.417267
696.370789	1260.397095	5443.269043	1732.739624	11.292301
696.697205	1261.214355	5550.041504	1750.943726	11.418725
697.023621	1262.477539	5674.201660	1756.070435	11.188209
697.349915	1257.202026	5821.394531	1775.686401	11.359827
697.676208	1255.121460	6011.460938	1795.896851	11.369572
698.002380	1249.920410	6236.821777	1837.357788	11.779607
698.328674	1250.217529	6438.776855	1871.982788	11.983389
698.654724	1244.942017	6588.720215	1898.211548	12.224862
698.980896	1249.548828	6678.402832	1913.146484	12.223531
699.306946	1252.075195	6696.755859	1912.254883	12.125223
699.632935	1260.768555	6621.338379	1911.066040	12.131126
699.958862	1259.208374	6493.314941	1895.759766	12.161606
700.284729	1258.390991	6302.653809	1888.626587	12.494107
700.610596	1258.762573	6124.327637	1866.930176	12.499424
700.936340	1266.192749	5920.292480	1847.388672	12.487827
701.262146	1268.347534	5733.049316	1826.509644	12.501666
701.587830	1264.335083	5544.692871	1809.494141	12.736296
701.913513	1251.480713	5376.545410	1783.191040	12.889746
702.239075	1246.502319	5253.425293	1765.135376	12.943425
702.564697	1245.164917	5143.011230	1756.219116	13.111195
702.890137	1244.867676	5059.197754	1751.909668	13.293081
703.215698	1239.443726	4976.053223	1745.593872	13.545707
703.541016	1243.010376	4911.187012	1736.677612	13.458109
703.866455	1252.075317	4861.626953	1734.968628	13.378207
704.191711	1256.236206	4820.314941	1723.377441	13.106929
704.517029	1255.195923	4789.107422	1720.925415	13.178866
704.842163	1245.239380	4749.281738	1721.817017	13.600795
705.167419	1248.285645	4721.194824	1725.829468	13.750542
705.492493	1245.759399	4717.702148	1728.578491	13.906308
705.817566	1249.474609	4700.984375	1722.559937	13.706620
706.142578	1250.663452	4691.102051	1725.234863	13.793922
706.467590	1254.527222	4663.907227	1724.937622	13.797536
706.792480	1251.926636	4670.892090	1732.665161	14.060936
707.117371	1247.171143	4687.387207	1731.699219	14.084234
707.442200	1240.706787	4699.646973	1739.649780	14.424736
707.766907	1238.254883	4705.368652	1733.333984	14.279286
708.091675	1238.180542	4710.866699	1733.928345	14.275630
708.416321	1243.456055	4715.919434	1727.463867	13.938457
708.741028	1243.158813	4724.687012	1736.157349	14.160406
709.065552	1244.199097	4725.430176	1750.126343	14.532999
709.390137	1242.861572	4739.176270	1767.141602	14.995218
709.714600	1244.496216	4768.376953	1777.023926	15.111967
710.039063	1244.942017	4818.531250	1778.064087	14.918392
710.363403	1245.908081	4870.617676	1780.739258	14.755146
710.687744	1248.211426	4926.196289	1786.832031	14.644448
711.012085	1247.319824	4965.874512	1797.457031	14.794383
711.336304	1243.530396	4983.854980	1810.460083	15.157232
711.660461	1246.651001	4977.836426	1818.559082	15.327785
711.984619	1247.616943	4931.917480	1817.444702	15.466375
712.308716	1255.344360	4905.020020	1814.546875	15.321978
712.632751	1250.068970	4864.153809	1810.460083	15.505754
712.956726	1244.644897	4829.676270	1806.076172	15.660429
713.280701	1241.375610	4792.005371	1793.519165	15.550580
713.604553	1244.124756	4747.126465	1782.076538	15.356880
713.928467	1249.846191	4734.271973	1778.138550	15.161532
714.252258	1252.818237	4697.640625	1777.692749	15.236621
714.575989	1255.716064	4697.937988	1773.606079	15.045224
714.899719	1260.545532	4692.365723	1771.079712	14.876483
715.223267	1256.087524	4702.916504	1770.856812	14.934575
715.546936	1255.864624	4693.554199	1782.373657	15.315783
715.870422	1246.874023	4671.560547	1790.398315	15.870775
716.193970	1256.533325	4649.642090	1793.147461	15.814822
716.517395	1256.384644	4628.985352	1798.200195	16.065216
716.840820	1259.133789	4589.530273	1792.627319	16.018919
717.164124	1256.756104	4550.075684	1791.958618	16.251156
717.487488	1251.629272	4492.491211	1778.361328	16.252838
717.810730	1249.251587	4444.417480	1775.017700	16.455048
718.133972	1244.644897	4370.263184	1763.575195	16.602486
718.457092	1250.812012	4305.768555	1756.144897	16.541410
718.780212	1248.657349	4255.985840	1741.209961	16.378410
719.103210	1245.536621	4217.348145	1738.386353	16.584152
719.426208	1237.437378	4176.407227	1733.556763	16.880724
719.749207	1247.839844	4135.095215	1738.758179	17.002941
720.072083	1251.109131	4086.129883	1730.064575	16.894249
720.394958	1260.099731	4050.241455	1730.733276	16.867729
720.717773	1254.750122	4009.300781	1716.392944	16.759277
721.040527	1253.041138	3985.746826	1718.696167	17.040073
721.363281	1244.421997	3951.641602	1715.724121	17.409082
721.685913	1250.960571	3929.871094	1725.012085	17.695683
722.008545	1247.839966	3911.592529	1719.885132	17.721060
722.331055	1253.784058	3906.762695	1716.021484	17.423338
722.653503	1247.394043	3900.075439	1710.002808	17.439289
722.976013	1254.229858	3896.806396	1711.711792	17.311964
723.298401	1254.973022	3881.722900	1710.151367	17.328575
723.620789	1246.056519	3879.047852	1710.448608	17.637434
723.943115	1237.883179	3860.397705	1710.077148	18.005390
724.265381	1235.356934	3858.540283	1712.603394	18.193409
724.587585	1241.004028	3836.769775	1716.095581	18.302559
724.909790	1239.295044	3845.760498	1709.928589	18.056391
725.231873	1235.431274	3843.457031	1711.488892	18.253561
725.553894	1236.397339	3871.171875	1722.337280	18.443323
725.875916	1282.836548	3923.332275	1768.553345	18.394911
726.197937	1284.322510	3935.072266	1777.543945	18.606865
726.519775	1287.740479	3935.146484	1776.429565	18.459167
726.841675	1247.542603	3944.879883	1748.194336	18.560961
727.163513	1252.669556	3982.105469	1748.417358	18.163012
727.485291	1257.870728	4014.798828	1751.760864	17.914509
727.806946	1260.248413	4018.068115	1764.764038	18.294003
728.128662	1260.248413	4033.002930	1771.376953	18.433964
728.450256	1256.681885	4044.445557	1767.141602	18.310724
728.771790	1256.458984	4036.346680	1769.890747	18.469515
729.093323	1254.898560	4020.074463	1778.881470	18.949352
729.414795	1253.115356	4016.656982	1792.553101	19.519798
729.736145	1245.833740	4013.090088	1788.540894	19.611742
730.057495	1245.908081	4029.436768	1784.825806	19.360954
730.378845	1239.295044	4034.786377	1785.494507	19.538586
730.700134	1237.957642	4043.405273	1783.116821	19.432163
731.021301	1240.112427	4068.222656	1791.587280	19.499763
731.342468	1250.217651	4092.965576	1795.673828	19.187637
731.663574	1253.932739	4111.615723	1802.138306	19.183567
731.984680	1254.675781	4111.318359	1793.073242	18.847212
732.305664	1245.387817	4113.324219	1790.249878	18.998400
732.626648	1247.319702	4123.429688	1794.484985	19.024492
732.947571	1244.570557	4131.082520	1805.556030	19.434719
733.268433	1253.412598	4112.061035	1804.813110	19.288853
733.589233	1259.876953	4097.646484	1816.701538	19.621910
733.909973	1263.071899	4059.900391	1805.779175	19.404381
734.230713	1260.694214	4014.130127	1802.138306	19.664307
734.551331	1248.285767	3935.294922	1784.156860	19.943031
734.871948	1240.335327	3861.066406	1779.252930	20.563637
735.192505	1238.477783	3819.234131	1776.800903	20.859121
735.513062	1243.010254	3785.797852	1764.095093	20.492661
735.833435	1247.245483	3759.643311	1750.423340	20.027792
736.153931	1245.239258	3719.817139	1732.590820	19.694330
736.474304	1249.994629	3700.349854	1735.265625	19.804108
736.794617	1253.561279	3689.501709	1743.661987	20.119568
737.114807	1256.756226	3684.300537	1749.606079	20.302402
737.434998	1262.626221	3673.303711	1747.674316	20.120821
737.755188	1260.842896	3691.062256	1751.686646	20.197510
738.075256	1259.505371	3721.229248	1756.739258	20.198605
738.395325	1252.298096	3743.891357	1763.203735	20.505178
738.715271	1253.041138	3744.039795	1771.302612	20.805370
739.035278	1250.812012	3743.816650	1778.658569	21.173107
739.355164	1256.310425	3735.717773	1773.754517	20.869669
739.675049	1258.985229	3730.145264	1770.485229	20.698780
739.994873	1259.431030	3712.758545	1771.302612	20.864380
740.314636	1251.926514	3699.681396	1770.856812	21.200256
740.634277	1246.502441	3653.316406	1763.277832	21.471348
740.953979	1243.753296	3610.517822	1748.120117	21.310392
741.273499	1248.508667	3576.487061	1750.571899	21.566488
741.593140	1245.982300	3548.772217	1744.182007	21.634613
741.912598	1253.412720	3508.054443	1740.615601	21.608883
742.232117	1252.149536	3463.324219	1723.897461	21.334719
742.551453	1252.892456	3441.479248	1717.135864	21.212015
742.870850	1253.189575	3427.287109	1711.637573	21.086817
743.190063	1249.697510	3412.352295	1712.826538	21.414839
743.509338	1248.582886	3403.881836	1697.668579	20.836353
743.828552	1240.781128	3398.309326	1698.783081	21.228085
744.147705	1236.025757	3382.111328	1692.764648	21.282419
744.466797	1237.957642	3361.083984	1706.213379	22.055010
744.785828	1245.833862	3336.117920	1706.361938	22.031841
745.104858	1253.338257	3329.281982	1697.074219	21.375143
745.423706	1256.681885	3300.080811	1695.588257	21.479231
745.742615	1251.480713	3280.910889	1694.027832	21.806471
746.061401	1246.948364	3263.821045	1704.727417	22.697470
746.380249	1246.725464	3276.155518	1702.943970	22.480129
746.698975	1253.858521	3271.400146	1702.126831	22.218540
747.017639	1257.945190	3266.050049	1700.566406	22.041739
747.336304	1248.137207	3240.267578	1700.194824	22.692171
747.654907	1241.524292	3227.338623	1702.646851	23.220829
747.973389	1240.781128	3219.462891	1695.588257	22.985359
748.291931	1251.035034	3220.800049	1694.399414	22.508492
748.610352	1257.202026	3235.586182	1697.520020	22.256445
748.928711	1255.344482	3240.044678	1710.002808	22.908161
749.247070	1249.548950	3252.081299	1704.132935	22.700457
749.565308	1247.914185	3234.546143	1700.640625	22.788641
749.883545	1254.750000	3231.871094	1690.312500	22.030138
750.201782	1257.573486	3223.103516	1694.473633	22.228109
750.519836	1254.378540	3217.828125	1698.634399	22.626293
750.837952	1243.455933	3216.044922	1703.390015	23.316265
751.155884	1244.050415	3214.558594	1708.665405	23.578436
751.473877	1242.564453	3222.285889	1702.572632	23.236006
751.791809	1255.716064	3218.496338	1709.854126	23.137489
752.109619	1256.236206	3210.992188	1712.529175	23.342707
752.427490	1267.530151	3194.645264	1711.414551	23.033621
752.745300	1261.288696	3198.434570	1705.173218	22.914356
753.062988	1263.072021	3206.682373	1699.005981	22.429083
753.380615	1246.725464	3206.459717	1698.931641	23.074873
753.698303	1245.239258	3201.852783	1700.046265	23.244600
754.015808	1242.192871	3185.506104	1704.430054	23.786036
754.333374	1254.229858	3191.822021	1709.334106	23.488134
754.650757	1249.548828	3184.391602	1708.145142	23.701994
754.968262	1253.561157	3173.766357	1713.941040	23.975557
755.285583	1250.886230	3172.651611	1712.603516	24.025684
755.602905	1251.183472	3161.209229	1716.838745	24.379528
755.920105	1243.678833	3166.707764	1707.773804	24.133541
756.237305	1239.072144	3165.370361	1711.786133	24.540022
756.554443	1246.799683	3166.410889	1712.677734	24.269396
756.871582	1247.765503	3167.599365	1720.628296	24.630402
757.188599	1248.062866	3173.692139	1719.810913	24.498384
757.505615	1246.428101	3197.022705	1718.473267	24.200066
757.822510	1246.874023	3225.927002	1725.457886	24.182468
758.139465	1251.257690	3251.932861	1731.625000	24.010260
758.456238	1246.205200	3269.096680	1743.141968	24.565666
758.773010	1255.493042	3286.632080	1740.912720	23.898890
759.089783	1258.390869	3300.006592	1749.531738	24.056480
759.406433	1263.963501	3304.985107	1752.355347	23.928793
759.723145	1255.938843	3312.117920	1757.036499	24.370331
760.039673	1252.669556	3327.349854	1754.064087	24.167316
760.356201	1254.675659	3346.148438	1756.516235	23.994604
760.672668	1257.499268	3353.430420	1758.819702	23.918745
760.989136	1251.480835	3360.786377	1757.556641	23.992531
761.305481	1241.004150	3362.495361	1763.352173	24.621738
761.621826	1243.976196	3357.962891	1776.429321	25.187155
761.938049	1253.932739	3355.065186	1790.101196	25.518072
762.254333	1251.034912	3379.956299	1800.057617	25.788773
762.570496	1238.254883	3458.048828	1804.812988	25.523005
762.886597	1235.059937	3593.948486	1836.614624	25.501614
763.202637	1248.805908	3799.098389	1883.276733	24.878355
763.518677	1249.251587	4035.455078	1955.722046	25.356024
763.834656	1245.313599	4258.883301	2015.609985	25.560926
764.150574	1240.038086	4396.194824	2054.618896	25.809263
764.466370	1248.508667	4411.724121	2063.460938	25.763414
764.782288	1249.697388	4314.610352	2049.937744	26.109724
765.097961	1254.006958	4166.896484	2006.693481	25.839857
765.413696	1253.561157	4006.105469	1954.310181	25.458227
765.729309	1252.743896	3839.816162	1900.960815	25.056004
766.044861	1249.474487	3683.854736	1866.038452	25.327347
766.360474	1247.245483	3557.762939	1847.760132	25.990482
766.675903	1244.421997	3464.290039	1824.131836	26.114607
766.991394	1248.359985	3394.222656	1806.522095	26.011082
767.306763	1249.474609	3320.811279	1782.968140	25.756002
767.622131	1252.298096	3280.242188	1777.469727	25.896751
767.937378	1245.982422	3238.335693	1764.541016	26.027443
768.252625	1243.753296	3214.930420	1754.733032	25.922567
768.567810	1247.022583	3163.809814	1739.798218	25.708416
768.882996	1250.068970	3116.999023	1732.888062	25.861660
769.197998	1251.852173	3071.228516	1717.061646	25.569721
769.513062	1252.000854	3040.095703	1713.866699	25.830053
769.828064	1254.155640	3004.579102	1711.265991	26.114273
770.142944	1255.195801	2986.300537	1716.913086	26.671829
770.457825	1248.359985	2976.938232	1702.795410	26.289549
770.772705	1243.158813	2975.898438	1699.228882	26.320749
771.087402	1246.056763	2946.548828	1691.575562	26.199406
771.402100	1252.075073	2921.062744	1688.752075	26.164185
771.716736	1248.062866	2896.840576	1681.247681	26.273088
772.031372	1247.765503	2893.050781	1679.984497	26.270155
772.345947	1245.982300	2887.998047	1693.284546	27.241045
772.660461	1247.542603	2868.307861	1694.324829	27.566128
772.974854	1250.291870	2852.778564	1682.882324	26.994947
773.289246	1251.777954	2834.574219	1669.879395	26.415367
773.603638	1260.471313	2829.298828	1661.557495	25.565983
773.917908	1252.743774	2817.559326	1666.609985	26.448242
774.232178	1252.297974	2800.841064	1660.814453	26.380699
774.546265	1246.428101	2783.156982	1657.842407	26.772081
774.860474	1246.279663	2764.432617	1649.817749	26.580858
775.174561	1249.177368	2758.414307	1645.285156	26.245567
775.488586	1246.502441	2758.265625	1650.560547	26.727606
775.802551	1254.675659	2753.807373	1654.201538	26.650486
776.116516	1254.006958	2735.826172	1658.585449	27.302824
776.430359	1248.434204	2724.457764	1658.957031	27.812756
776.744202	1241.969971	2729.287354	1656.727905	27.886311
777.057922	1239.295044	2723.937744	1657.099243	28.141733
777.371704	1247.245483	2730.253174	1653.458374	27.391151
777.685303	1249.400269	2714.278320	1649.148926	27.288870
777.998962	1249.846069	2726.166992	1644.616333	26.740139
778.312500	1251.480835	2697.931885	1643.650513	27.112543
778.626038	1251.109253	2694.662354	1647.439941	27.455221
778.939453	1246.874023	2677.572998	1643.724976	27.738256
779.252869	1247.542725	2693.919189	1645.805298	27.535194
779.566223	1244.793457	2693.845215	1640.083984	27.279255
779.879578	1253.858398	2693.844971	1643.799194	27.079473
780.192749	1254.229858	2687.381104	1640.083984	26.923475
780.505920	1261.734375	2680.545166	1636.666016	26.425768
780.819031	1265.375366	2680.916504	1631.687866	25.877913
781.132141	1259.431030	2672.148682	1635.031250	26.587069
781.445190	1252.595337	2675.195313	1640.009644	27.232836
781.758118	1247.616943	2656.248047	1647.811401	28.410168
782.071045	1255.641724	2644.582764	1645.656616	28.080017
782.383911	1257.722168	2628.458740	1646.696899	28.377060
782.696838	1246.799683	2617.610596	1636.740234	28.445976
783.009583	1250.143311	2607.208008	1631.613403	28.109941
783.322266	1252.520874	2584.545898	1621.211060	27.678923
783.634888	1264.186523	2577.784180	1624.406128	27.422369
783.947510	1254.601440	2577.189697	1617.867554	27.466305
784.260132	1254.601440	2574.960693	1618.833374	27.585821
784.572571	1252.297974	2559.059814	1616.455688	27.867184
784.885010	1251.257813	2549.400635	1612.963501	27.863319
785.197449	1248.508545	2543.456299	1608.728394	27.817327
785.509766	1253.486938	2531.642334	1603.601440	27.392170
785.822083	1258.167969	2517.079102	1599.514648	27.114439
786.134277	1256.904785	2512.323486	1598.325806	27.195789
786.446533	1251.406372	2522.948975	1599.514648	27.376848
786.758606	1254.081421	2530.007813	1602.041016	27.271133
787.070740	1251.852173	2538.106689	1604.344360	27.404545
787.382690	1259.356812	2545.685547	1615.192505	27.662889
787.694641	1254.452759	2565.004150	1629.978882	28.654055
788.006653	1259.654053	2594.502197	1651.749634	29.373796
788.318481	1259.208130	2641.759033	1657.842407	28.833244
788.630310	1259.505493	2677.275635	1672.405640	29.123207
788.942017	1258.390869	2703.504639	1675.674927	28.875517
789.253784	1249.548828	2712.197998	1680.801758	29.484373
789.565430	1254.675659	2702.984375	1674.114624	28.960606
789.877014	1257.796387	2677.721436	1663.637817	28.581892
790.188538	1255.047241	2636.854980	1652.269531	28.746567
790.500061	1253.784058	2601.115234	1638.151978	28.528095
790.811462	1250.291870	2567.158936	1629.235718	28.776165
791.122925	1252.000854	2541.153076	1623.663086	28.829973
791.434204	1249.400146	2520.051025	1619.724976	29.144499
791.745483	1240.260986	2497.834717	1617.124390	29.967499
792.056702	1240.558228	2486.912109	1610.808716	29.706690
792.367920	1243.158813	2467.593506	1610.957397	30.038237
792.678955	1252.149414	2465.364258	1605.904785	29.158510
792.990112	1253.412720	2447.680420	1602.115234	29.198019
793.301086	1256.384766	2444.485107	1593.719116	28.392750
793.612122	1258.093750	2443.519287	1595.130859	28.431740
793.922974	1257.796509	2437.129150	1592.827515	28.408525
794.233826	1251.034790	2429.996094	1595.353882	29.205292
794.544556	1250.960571	2420.634033	1588.889282	28.890860
794.855286	1245.685059	2431.110840	1587.403320	28.826626
795.166016	1252.446655	2436.237549	1591.267090	28.621645
795.476624	1250.737671	2450.801025	1592.084473	28.444065
795.787292	1248.731567	2472.125732	1596.468262	28.423929
796.097778	1240.335449	2504.001709	1596.022461	28.147226
796.408264	1236.843140	2522.651855	1609.991333	29.020506
796.718689	1240.409668	2534.317383	1624.405884	29.677250
797.029053	1243.976196	2542.936523	1631.762085	29.853559
797.339355	1243.455933	2536.174561	1627.081055	29.675840
797.649658	1242.118530	2522.205811	1627.749634	30.125376
797.959839	1241.375610	2490.850098	1624.257446	30.643429
798.270020	1242.713013	2476.509766	1629.681641	31.364050
798.580078	1245.387817	2456.447998	1621.285278	31.038710
798.890137	1245.536499	2457.859863	1619.279175	30.828629
799.200195	1242.935791	2438.021240	1620.319336	31.577955
799.510071	1240.260864	2433.860107	1614.375366	31.343393
799.820007	1243.753174	2414.912842	1614.523926	31.658428
800.129883	1245.462158	2397.897461	1604.344360	31.141201
800.439575	1250.514771	2378.950439	1598.548828	30.842171
800.749329	1255.270142	2359.111572	1585.545776	29.920568
801.058960	1260.917114	2365.872803	1577.446655	28.646357
801.368591	1261.363037	2357.031006	1583.167969	29.370661
801.678162	1250.514771	2361.043213	1593.570435	30.891209
801.987671	1244.421997	2343.730713	1599.143188	32.267658
802.297119	1247.394043	2330.058838	1586.437500	31.315645
802.606506	1254.824341	2309.774414	1582.053589	31.018457
802.915894	1259.059692	2309.922852	1573.285767	29.901712
803.225159	1259.802612	2308.511230	1573.508789	29.913568
803.534424	1255.567383	2315.049805	1564.815430	29.188597
803.843628	1253.412598	2312.597900	1568.901978	29.786041
804.152771	1246.948242	2319.136475	1576.332153	30.720716
804.461792	1252.520874	2314.529541	1569.942261	29.888775
804.770874	1253.041138	2306.356445	1566.152710	29.726292
805.079773	1256.236084	2305.910889	1565.781250	29.489626
805.388733	1256.384644	2319.879639	1574.474609	29.909870
805.697571	1255.195801	2337.786377	1575.366211	29.574469
806.006470	1250.663452	2359.408447	1574.846191	29.238710
806.315125	1241.746948	2371.742920	1577.075195	29.675173
806.623901	1240.855469	2378.281494	1581.161987	29.919003
806.932495	1244.719238	2371.594238	1586.363159	30.317820
807.241150	1249.177368	2349.229004	1582.350708	30.287064
807.549622	1256.161743	2335.706055	1580.939087	30.084669
807.858154	1256.013184	2325.972412	1580.047363	30.284721
808.166565	1252.818237	2317.576172	1587.774902	31.458481
808.474915	1245.982300	2304.201660	1582.499390	31.800316
808.783264	1247.319824	2283.842773	1577.966797	31.899630
809.091492	1254.750000	2273.366211	1563.106323	30.272081
809.399719	1258.167969	2254.790283	1567.341675	31.022154
809.707825	1261.288574	2233.688232	1560.728516	30.793917
810.015930	1254.601440	2214.444092	1563.775024	32.210861
810.323975	1258.242188	2212.437744	1552.852539	30.875259
810.632080	1249.251587	2212.883789	1544.976563	30.688574
810.939880	1251.183472	2209.540039	1535.985962	29.717800
811.247864	1246.576660	2196.165527	1537.323242	30.618155
811.555664	1249.028687	2180.933350	1540.964233	31.326761
811.863464	1252.520996	2172.462891	1539.403809	31.184883
812.171143	1250.366211	2157.602539	1533.533813	31.212111
812.478882	1253.115479	2158.865479	1534.499878	31.066454
812.786438	1245.759399	2165.329590	1537.620605	31.738873
813.094055	1245.833862	2180.115967	1540.815430	31.573072
813.401489	1246.576782	2180.413330	1530.933228	30.450344
813.708984	1248.583008	2172.685791	1534.053833	30.891674
814.016357	1253.709839	2163.397705	1539.998169	31.471050
814.323730	1251.629395	2160.277100	1540.221069	31.760569
814.630981	1254.453003	2156.859375	1531.602051	30.712221
814.938232	1252.669556	2148.314697	1520.010742	29.849009
815.245361	1251.406372	2137.540771	1525.880737	30.974350
815.552490	1250.514771	2132.413818	1529.298706	31.611774
815.859619	1249.697510	2134.048584	1538.140625	32.616360
816.166565	1257.424927	2140.587158	1541.112793	32.121830
816.473572	1259.133911	2157.379639	1552.629517	32.674313
816.780457	1256.904785	2166.370361	1547.131348	31.911770
817.087341	1255.493042	2186.431885	1543.861816	30.976124
817.394043	1255.493042	2191.113037	1530.041626	29.344027
817.700806	1246.353882	2212.289063	1533.979614	29.776918
818.007507	1249.920288	2214.518311	1537.992065	29.864437
818.314209	1244.570435	2212.511963	1549.508911	31.503811
818.620667	1253.858398	2217.118896	1551.292358	30.877832
818.927246	1239.517944	2239.929688	1556.121948	31.647369
819.233704	1241.226929	2290.009766	1559.762695	30.371946
819.540161	1240.037964	2332.956787	1574.846191	30.634317
819.846497	1250.737671	2397.748779	1597.211304	30.206650
820.152832	1253.858398	2468.113525	1631.910645	31.134499
820.458984	1259.876953	2563.072510	1668.765015	31.375803
820.765259	1259.653931	2655.430420	1704.504517	31.871191
821.071350	1264.260864	2761.757813	1733.705566	31.348625
821.377502	1265.969849	2929.236084	1789.432495	31.471970
821.683472	1263.443481	3259.065674	1888.626587	31.327728
821.989441	1262.254639	3916.422119	2107.447998	31.844009
822.295349	1255.270142	5003.693848	2452.287109	31.933874
822.601196	1257.796387	6422.949707	2917.793701	32.138393
822.907043	1245.759399	7770.726563	3343.622314	32.151314
823.212769	1251.034912	8622.682617	3622.035156	32.163776
823.518494	1249.994629	8667.188477	3632.660156	32.123543
823.824097	1252.000977	8045.498535	3439.399170	32.198410
824.129700	1248.880127	6992.332031	3107.711670	32.364361
824.435242	1249.623047	5905.282715	2767.181641	32.595997
824.740723	1257.053345	4974.492676	2471.531250	32.669743
825.046082	1259.431152	4302.275879	2248.846191	32.516121
825.351501	1255.344604	3844.050781	2083.076904	31.974751
825.656799	1252.743774	3543.571045	1987.746460	32.084599
825.962036	1245.833740	3344.216797	1928.378540	32.527180
826.267212	1245.462280	3259.734619	1921.022583	33.538677
826.572449	1243.901978	3253.567627	1919.239258	33.604458
826.877502	1254.229980	3404.178955	1967.387329	33.170895
827.182495	1258.688110	3678.579102	2048.749023	32.648613
827.487488	1256.830566	4028.322021	2162.432129	32.675602
827.792419	1248.137207	4316.988281	2266.010010	33.167877
828.097290	1239.889526	4435.277832	2311.557861	33.537971
828.402100	1242.564453	4323.824219	2279.979248	33.668530
828.706848	1245.833618	4012.570068	2179.819092	33.757660
829.011597	1252.149414	3619.954346	2051.646729	33.765339
829.316223	1249.697388	3244.131104	1922.359985	33.726997
829.620789	1242.713013	2938.152344	1820.119263	34.056438
829.925354	1239.220825	2691.095947	1741.878540	34.621277
830.229797	1246.056519	2515.518555	1691.352661	35.077545
830.534302	1252.966675	2402.801514	1651.823853	34.688213
830.838562	1251.257690	2320.994141	1621.879883	34.646122
831.142944	1246.725220	2267.347412	1598.400024	34.456905
831.447144	1244.421997	2216.078369	1577.818359	34.312168
831.751404	1243.307495	2193.490723	1562.734863	33.617451
832.055542	1247.394043	2186.283447	1559.614136	33.254192
832.359619	1249.994751	2193.490723	1566.598633	33.556465
832.663635	1246.725464	2209.837158	1579.601563	34.562565
832.967651	1242.267212	2247.880127	1599.737671	35.547520
833.271545	1239.963745	2348.337402	1619.576538	34.249531
833.575439	1242.415649	2518.639404	1673.148804	33.750599
833.879211	1241.375610	2765.175781	1755.921875	33.767307
834.183044	1241.375610	3020.182861	1847.834351	34.093563
834.486694	1246.279419	3213.889893	1916.415649	34.058380
834.790344	1249.771729	3299.115234	1939.672485	33.664474
835.093933	1249.994629	3252.304688	1922.657227	33.594326
835.397522	1245.982300	3114.101563	1861.208984	32.932945
835.700928	1247.839966	2902.338623	1779.401489	32.128254
836.004395	1250.440552	2681.362305	1710.448608	32.147675
836.307739	1255.195923	2493.599365	1656.950684	32.441349
836.611023	1249.920410	2356.065186	1620.914063	33.539341
836.914307	1255.121582	2269.427979	1581.087524	32.136833
837.217529	1257.424927	2187.695068	1557.682251	32.276360
837.520691	1259.951294	2126.395264	1540.518188	32.381424
837.823730	1247.914185	2072.674561	1531.230469	34.351345
838.126831	1243.530396	2037.529297	1508.196655	33.333328
838.429749	1242.713013	2000.452148	1491.998657	32.898609
838.732727	1245.759399	1966.644165	1475.874878	31.921257
839.035522	1250.068970	1939.375366	1475.131836	32.650627
839.338379	1252.000854	1921.839844	1466.958618	32.090961
839.641113	1256.533325	1928.675781	1467.404419	31.372976
839.943848	1255.195801	1962.929199	1480.927612	31.895035
840.246460	1251.703613	2025.789429	1501.509399	32.271072
840.549072	1245.388062	2084.116943	1524.543335	33.283134
840.851563	1249.400269	2123.869141	1529.298462	32.007793
841.154053	1241.004028	2128.104248	1532.642212	32.875450
841.456482	1251.257813	2104.253174	1522.834351	31.837986
841.758850	1245.610962	2055.807861	1507.156372	32.281708
842.061157	1258.167969	1990.718628	1486.277344	31.139057
842.363403	1258.093628	1929.121582	1465.769653	30.948938
842.665588	1257.350586	1879.784546	1453.361328	31.491011
842.967712	1255.567383	1842.558960	1442.513062	31.848103
843.269775	1255.270264	1815.438477	1436.494507	32.351753
843.571777	1251.777954	1784.825684	1424.457397	32.394745
843.873840	1247.022583	1766.250000	1417.324341	32.799068
844.175659	1237.288940	1748.640259	1402.761108	32.359779
844.477600	1242.787354	1741.655884	1408.408081	33.199272
844.779297	1246.056641	1740.838501	1399.566040	31.025673
845.081116	1255.121460	1729.841797	1404.841431	31.538563
845.382751	1257.202026	1720.628296	1390.500977	28.763788
845.684387	1263.369141	1705.916382	1398.302856	30.490240
845.985962	1259.505493	1700.417847	1395.553711	30.856068
846.287537	1254.527222	1683.551147	1398.302856	33.512264
846.588989	1251.777954	1671.216797	1385.745728	31.939764
846.890381	1248.285767	1658.139526	1377.721069	31.580851
847.191711	1250.514771	1659.848633	1382.996460	32.365192
847.493042	1249.474487	1652.938477	1380.916016	32.578255
847.794250	1250.663452	1658.659668	1390.129517	34.183174
848.095459	1246.502319	1652.195190	1379.207031	32.710636
848.396606	1243.158691	1660.888672	1386.488770	34.311657
848.697693	1247.839966	1655.687500	1375.046021	31.189610
848.998657	1251.703613	1654.573242	1376.086426	30.874208
849.299622	1251.703735	1653.384155	1370.216431	29.504225
849.600464	1254.229980	1654.127075	1371.925415	29.431431
849.901367	1255.938843	1659.551270	1369.473267	28.129566
850.202087	1254.081299	1655.687500	1371.479614	29.232197
850.502808	1248.657227	1651.452271	1372.222656	30.676998
850.803467	1248.062866	1643.204712	1371.999634	31.365133
851.104065	1246.948242	1639.192261	1375.789063	32.847111
851.404663	1247.542603	1632.876587	1374.154419	32.857681
851.705139	1242.267212	1629.235840	1371.033813	33.275723
852.005615	1251.183472	1625.000488	1363.975098	30.172951
852.306030	1254.898560	1622.920044	1369.101929	31.031713
852.606384	1256.087524	1616.604370	1370.736694	31.801334
852.906616	1256.904785	1612.443359	1364.941040	30.386648
853.206909	1251.257813	1609.471191	1360.036987	30.367146
853.506958	1257.722046	1613.186157	1364.643921	30.079514
853.807129	1255.344360	1612.146118	1366.798462	31.236982
854.107178	1257.053345	1606.499023	1361.225952	29.810816
854.407166	1255.790161	1598.846069	1352.532471	28.200159
854.707092	1251.034912	1593.050293	1350.600586	29.111462
855.007019	1250.291870	1593.941895	1352.383789	29.708107
855.306763	1244.570679	1588.071899	1351.789429	31.213499
855.606567	1247.319824	1579.155640	1351.937988	31.527086
855.906250	1244.199097	1572.691406	1348.520142	31.757530
856.205933	1249.771851	1577.966797	1352.235352	31.220316
856.505493	1251.034912	1588.740723	1346.142456	28.162840
856.805054	1259.133789	1587.997681	1341.312866	24.988781
857.104492	1259.505493	1584.951538	1339.826538	24.680296
857.403931	1259.951294	1582.648071	1338.117554	24.222820
857.703308	1253.486816	1587.329102	1341.832886	26.463415
858.002563	1248.062866	1593.273438	1341.907104	27.184637
858.301819	1246.130981	1592.827515	1344.805054	28.461224
858.601013	1246.725342	1587.849243	1342.724487	28.142017
858.900208	1252.372437	1579.750122	1339.678101	26.668179
859.199219	1245.908081	1579.304321	1335.517212	26.877666
859.498291	1251.480835	1580.716187	1338.860718	26.540249
859.797302	1251.035034	1580.047363	1336.705933	26.038811
860.096191	1257.722168	1572.839966	1339.678101	26.008030
860.395020	1251.926636	1570.387817	1339.306519	27.438158
860.693787	1246.130981	1566.821411	1342.798828	30.143663
860.992554	1243.753052	1563.775024	1343.096069	31.042561
861.291260	1247.617065	1560.431274	1343.541870	30.665104
861.589844	1246.279419	1555.007324	1345.027832	31.985580
861.888428	1251.703613	1553.744263	1348.222778	31.955687
862.186890	1246.353882	1550.475098	1350.303345	34.180275
862.485413	1254.824341	1557.087891	1353.349731	32.595856
862.783813	1255.790405	1552.704102	1348.743042	31.306282
863.082153	1260.025513	1548.914551	1347.851196	30.401182
863.380371	1252.520996	1549.731934	1341.609985	29.975004
863.678589	1247.171265	1556.790649	1344.953491	31.581429
863.976746	1247.988647	1568.753540	1338.340454	28.167610
864.274902	1252.223633	1572.765747	1344.210449	28.697264
864.572937	1252.075195	1569.570679	1343.764771	28.879017
864.870911	1254.378540	1563.998047	1348.000000	30.237585
865.168884	1254.527100	1565.484009	1340.867065	27.765894
865.466736	1252.223755	1568.604614	1341.387085	28.182278
865.764587	1252.000854	1563.329224	1343.987671	29.546558
866.062317	1252.000854	1554.487183	1348.594360	31.933180
866.360107	1254.081421	1550.028931	1346.439575	31.207613
866.657715	1251.183472	1551.738159	1340.346802	29.666258
866.955322	1243.381714	1548.245728	1336.037231	30.392408
867.252808	1247.988525	1551.292358	1340.272461	30.426235
867.550293	1249.251587	1553.447144	1341.981323	30.483593
867.847717	1252.818237	1553.001099	1340.495361	29.207905
868.145081	1248.657227	1551.069336	1334.848389	28.501226
868.442383	1246.948242	1542.673218	1331.504761	28.592958
868.739624	1252.075073	1537.769043	1327.269531	26.319931
869.036804	1253.486938	1536.505981	1329.944458	27.014973
869.333984	1254.304199	1536.728882	1333.065186	27.887430
869.631042	1258.167969	1541.781372	1341.832886	29.499634
869.928101	1261.065796	1538.140625	1340.792603	28.774467
870.224976	1256.904907	1536.505859	1347.702759	32.474087
870.521851	1256.756226	1538.586304	1350.526245	33.271828
870.818726	1253.486938	1544.827759	1350.377563	33.256798
871.115479	1253.858521	1549.137329	1346.142212	31.253069
871.412231	1250.291870	1550.846313	1344.953491	31.495665
871.708862	1252.743896	1547.502808	1350.377563	33.123230
872.005493	1250.737671	1549.286011	1343.913330	31.209572
872.302063	1247.988525	1549.434570	1343.987549	31.846170
872.598572	1250.217651	1541.781616	1340.421021	30.937763
872.895020	1253.189697	1544.604980	1346.439575	31.998966
873.191406	1251.852295	1543.936157	1341.386963	30.653753
873.487671	1244.793457	1550.251953	1337.820435	30.454866
873.783997	1243.456055	1540.815430	1340.123901	32.508759
874.080200	1250.068970	1538.363403	1344.136230	32.628887
874.376343	1251.703613	1546.388184	1351.120728	33.736790
874.672424	1253.041016	1553.298340	1350.674805	32.516705
874.968445	1249.103027	1548.394409	1351.938110	34.359520
875.264465	1245.387939	1541.930054	1351.417969	35.755470
875.560364	1245.387939	1544.456421	1348.891724	34.608723
875.856201	1243.530273	1544.456421	1348.074341	34.740772
876.152039	1252.000854	1544.159180	1343.541748	31.332632
876.447754	1248.285645	1541.484253	1342.352905	32.083118
876.743469	1246.353760	1548.988770	1337.151733	30.002468
877.039063	1243.158813	1544.233398	1334.328247	30.281345
877.334595	1250.143433	1543.713257	1333.659546	28.448467
877.630127	1249.920410	1541.112793	1336.631714	29.778013
877.925537	1248.731567	1553.595581	1345.250854	31.659784
878.221008	1251.332031	1558.499634	1352.978394	33.091499
878.516296	1254.972778	1561.100220	1354.167114	32.402954
878.811646	1252.446655	1565.707031	1356.619141	33.254280
879.106812	1248.582886	1583.316772	1358.848145	32.941170
879.401978	1244.942017	1604.715820	1365.386719	33.477898
879.697083	1243.381714	1621.359741	1370.885132	33.733025
879.992126	1246.874023	1653.086914	1375.120483	31.571243
880.287109	1251.035034	1704.281372	1384.928345	29.540958
880.582031	1254.675659	1780.813110	1413.757935	30.235878
880.876892	1251.406372	1904.675903	1467.107300	33.018673
881.171753	1256.830444	2150.097900	1572.765625	35.368488
881.466492	1257.202026	2565.821533	1714.089478	34.913696
881.761230	1255.121582	3110.906250	1896.576782	34.565174
882.055786	1247.171265	3673.526611	2072.451416	34.013161
882.350403	1242.936035	4038.873047	2203.224365	34.345848
882.644958	1243.381836	4124.395996	2234.059814	34.386433
882.939453	1241.375610	3908.545898	2171.868408	34.886890
883.233826	1242.638794	3533.837158	2047.485840	35.127777
883.528137	1246.799683	3113.135498	1908.316895	35.444706
883.822449	1252.966797	2748.234619	1775.240601	34.928444
884.116577	1251.555054	2462.391846	1671.514038	34.683369
884.410828	1252.966919	2254.938965	1604.121460	35.046341
884.704956	1249.028809	2096.005371	1555.527344	36.187370
884.999023	1255.790405	1979.127319	1506.338989	34.637882
885.292969	1249.474609	1894.645142	1462.351929	32.995510
885.586914	1251.480835	1824.057617	1428.915649	30.988825
885.880798	1248.434326	1779.252930	1414.649536	31.312996
886.174622	1246.576660	1744.999390	1405.733398	31.932079
886.468384	1244.644897	1721.965454	1400.309204	32.612110
886.762085	1250.291870	1708.813965	1394.439087	31.437355
887.055664	1250.886230	1692.764526	1388.717773	31.192196
887.349304	1252.595337	1673.371582	1377.943970	29.789854
887.642822	1248.731567	1635.180054	1371.479614	31.763107
887.936340	1248.137085	1602.561035	1367.987305	33.815498
888.229736	1244.867798	1578.041016	1364.643921	35.950104
888.523071	1243.381836	1568.381836	1355.207397	34.407864
888.816284	1245.759399	1554.264282	1349.783325	33.718731
889.109619	1260.174194	1542.301636	1350.377686	31.972605
889.402710	1263.666382	1532.642212	1348.148560	31.408836
889.695862	1263.740601	1521.422485	1340.346802	29.728983
889.988892	1248.582886	1512.803345	1333.956665	32.311569
890.281921	1238.031982	1501.286499	1335.665649	37.087177
>>>>>End Processed Spectral Data<<<<<
