Jaz Data File
++++++++++++++++++++++++++++++++++++
Date: Fri Jun 04 14:08:31 2021
User: jaz
Dark Spectrum Present: Yes
Reference Spectrum Present: Yes
Processed Spectrum Present: Yes
Spectrometers: JAZA3586
Integration Time (usec): 519000 (JAZA3586)
Spectra Averaged: 10 (JAZA3586)
Boxcar Smoothing: 1 (JAZA3586)
Correct for Electrical Dark: No (JAZA3586)
Strobe/Lamp Enabled: Yes (JAZA3586)
Correct for Detector Non-linearity: No (JAZA3586)
Correct for Stray Light: No (JAZA3586)
Number of Pixels in Processed Spectrum: 2048
>>>>>Begin Processed Spectral Data<<<<<
W	D	R	S	P
191.335022	0.000000	0.000000	0.000000	0.000000
191.713211	267.935577	267.712708	261.396942	2933.835449
192.091385	537.060059	543.450073	526.731995	-161.628174
192.469528	806.704590	817.404236	794.444641	-114.582748
192.847641	811.831543	822.010986	804.178406	-75.182274
193.225739	843.335876	843.707458	832.413391	-2939.454590
193.603790	875.583252	872.536865	856.413147	629.273499
193.981842	902.852356	903.000977	873.651367	-19648.007813
194.359863	902.703796	908.202148	875.286072	-498.653503
194.737854	915.038025	914.592224	896.165100	4233.488281
195.115829	908.276428	906.047363	896.536621	526.669617
195.493774	909.762512	901.737793	894.679016	187.962921
195.871704	903.000977	893.490234	883.385010	206.250641
196.249603	921.353699	915.558105	901.886414	335.898071
196.627457	928.115234	915.409485	901.217773	211.695190
197.005310	926.629211	920.090576	892.375671	523.863770
197.383133	919.570496	905.675842	883.905212	256.683502
197.760910	930.121399	927.075012	911.025635	626.833252
198.138687	927.669434	931.310242	922.691162	-136.735336
198.516449	922.096863	932.944885	914.963684	-65.755569
198.894180	908.870911	909.985413	881.304504	-2473.428223
199.271866	910.356934	900.325989	873.279846	369.627075
199.649536	907.161926	890.666687	878.406799	174.323792
200.027191	909.019531	902.778015	897.576843	183.331863
200.404816	893.936035	900.623230	885.019714	-133.334244
200.782410	896.982422	916.672668	895.347839	-8.301483
201.159988	890.072266	922.245361	895.422119	16.628345
201.537537	897.279602	942.455750	908.276428	24.342108
201.915070	892.524231	945.576416	904.561340	22.689186
202.292557	880.933044	940.746765	897.651184	27.950342
202.670029	883.607910	936.139954	908.053528	46.534679
203.047485	881.824707	928.189636	894.530457	27.403793
203.424911	885.465515	931.756104	895.645020	21.990440
203.802292	889.775085	937.031677	884.053711	-12.107040
204.179688	888.140442	941.935608	895.347839	13.397853
204.557037	902.926697	940.078064	895.124817	-21.000250
204.934357	898.617126	937.774658	907.236267	22.011450
205.311661	902.183594	935.842773	905.601563	10.154640
205.688934	904.115479	943.050110	904.487000	0.954217
206.066177	896.759521	925.366150	891.781250	-17.402510
206.443390	892.078430	922.691223	893.193054	3.641040
206.820587	870.233459	912.957520	886.802979	38.782642
207.197769	882.790710	927.520813	901.366272	41.528099
207.574921	892.078430	931.384705	901.440613	23.818544
207.952042	900.400391	933.390808	900.028809	-1.126333
208.329147	897.428223	944.907715	892.970032	-9.389719
208.706223	1063.123413	1120.187866	1058.219360	-8.593884
209.083267	1066.838501	1134.528198	1075.977661	13.501553
209.460297	1066.615601	1132.224854	1068.101685	2.265053
209.837280	889.700867	952.858093	900.400391	16.941092
210.214264	879.521301	940.969727	883.013489	5.683120
210.591217	868.598816	922.096741	877.589355	16.805399
210.968124	882.790710	940.523743	892.747131	17.245623
211.345016	894.753418	945.427734	910.208313	30.498478
211.721893	891.335449	951.594910	916.003906	40.937069
212.098724	887.991760	941.638367	902.703796	27.423983
212.475555	889.552185	947.879822	900.177490	18.216587
212.852356	897.799805	956.944763	906.938965	15.452137
213.229126	893.044434	957.390625	910.579834	27.251652
213.605865	879.149841	938.591980	895.570618	27.624807
213.982590	872.313965	927.520813	887.323059	27.187016
214.359283	868.970398	915.038025	877.217957	17.903154
214.735931	874.468750	921.130859	883.979492	20.382153
215.112579	886.431458	934.876770	896.388000	20.552128
215.489197	890.220886	951.223450	898.914307	14.250910
215.865799	887.471680	948.994385	899.954590	20.289925
216.242355	875.583252	942.752930	894.158997	27.654955
216.618896	880.933105	947.805603	903.000977	32.999920
216.995407	882.790588	955.458679	902.629395	27.300575
217.371902	880.561523	951.743469	895.347717	20.772394
217.748367	876.549133	942.901550	893.118652	24.971991
218.124802	879.744202	943.124451	896.908142	27.080898
218.501236	882.344727	942.678711	897.725525	25.492762
218.877609	876.400574	938.889343	888.214661	18.905935
219.253983	870.827881	939.112122	878.481140	11.207944
219.630295	878.703918	945.353516	878.332520	-0.557241
220.006592	884.871094	950.703308	878.852539	-9.142263
220.382889	887.917480	949.885986	878.926819	-14.508437
220.759140	884.053711	948.845703	882.419128	-2.522816
221.135391	889.032043	952.709473	890.592468	2.450515
221.511581	879.224121	948.325500	888.437683	13.333398
221.887772	879.818542	952.560852	890.815369	15.117511
222.263931	885.242615	970.987976	897.874084	14.731374
222.640060	899.211487	989.043457	906.047363	7.609625
223.016159	896.982422	999.445862	900.846191	3.770876
223.392212	888.214661	991.718445	899.731628	11.127098
223.768265	878.778259	994.096008	900.549011	18.878925
224.144302	876.400635	991.346924	897.799805	18.616669
224.520294	868.524597	983.842468	886.431458	15.528261
224.896286	879.224121	996.250977	900.846191	18.476162
225.272217	891.261047	1019.581970	918.976074	21.598213
225.648148	909.390930	1053.984009	939.112061	20.555016
226.024048	899.211487	1054.801392	924.177246	16.045874
226.399902	890.815247	1059.185303	914.592102	14.121784
226.775772	870.233459	1063.569214	895.793640	13.220617
227.151581	876.252014	1096.856812	907.533447	14.179852
227.527374	873.651428	1114.615112	910.728455	15.386977
227.903137	880.933105	1156.670532	929.527039	17.623264
228.278870	884.425293	1201.697998	942.381348	18.266953
228.654572	880.041504	1274.217407	962.591797	20.942501
229.030273	879.669922	1355.281616	975.520447	20.153105
229.405930	871.570984	1439.317993	975.371765	18.282928
229.781555	878.926941	1512.432007	980.350098	16.009842
230.157181	874.988831	1530.041626	973.588562	15.052181
230.532761	879.149719	1493.187500	976.337830	15.827708
230.908325	869.787598	1432.556641	964.152100	16.767891
231.283859	882.419128	1387.306274	975.520447	18.440025
231.659332	884.499573	1359.739868	969.799072	17.948709
232.034821	890.369568	1335.368530	962.740417	16.263149
232.410263	877.143616	1308.842407	945.353516	15.800345
232.785690	877.292236	1291.604248	935.248352	13.988520
233.161087	877.217957	1273.697266	943.867432	16.810329
233.536469	880.710205	1254.898682	938.294739	15.389179
233.911804	883.979492	1256.384644	948.697266	17.378325
234.287140	880.041504	1268.941895	942.678711	16.106234
234.662430	888.289063	1307.356323	956.721863	16.329790
235.037704	875.583313	1319.541992	958.282227	18.627615
235.412933	877.292236	1317.238647	964.597961	19.844627
235.788162	860.871399	1310.551392	951.074890	20.059484
236.163345	874.320129	1310.922974	958.579407	19.298838
236.538513	884.276672	1333.436646	972.474060	19.636074
236.913635	889.403564	1336.334473	983.768005	21.113876
237.288742	890.072266	1351.269409	984.511047	20.476879
237.663834	883.830872	1348.371582	968.907471	18.314133
238.038879	882.196228	1352.235229	972.176819	19.143217
238.413910	875.063171	1342.724487	961.179993	18.414356
238.788910	877.812317	1359.814087	968.461670	18.806850
239.163879	878.852600	1371.033813	966.678406	17.844202
239.538834	871.199402	1391.467163	980.424377	20.993992
239.913757	874.691589	1422.005493	1003.235291	23.486284
240.288651	875.583191	1468.816284	1018.170166	24.035574
240.663528	877.217957	1537.992188	1026.343506	22.568306
241.038361	864.883606	1596.245483	1024.708862	21.853102
241.413177	867.187012	1695.959595	1041.724121	21.059711
241.787979	864.586487	1799.686157	1068.250244	21.779898
242.162735	874.691589	1933.282593	1099.531616	21.239555
242.537476	870.010559	2040.575684	1117.141357	21.112091
242.912170	896.982422	2177.292725	1141.141235	19.070284
243.286865	902.703796	2232.945557	1140.026611	17.840578
243.661514	907.161926	2242.307373	1132.150513	16.851240
244.036148	900.920471	2153.664307	1118.776001	17.390268
244.410751	891.335449	2062.271973	1108.299316	18.529089
244.785339	886.802979	1965.901367	1097.376831	19.513870
245.159882	879.669922	1930.087524	1099.977417	20.973324
245.534378	892.449951	1957.653687	1116.249878	21.010057
245.908890	890.146545	2059.968750	1150.651978	22.268805
246.283356	883.310730	2216.747314	1173.611450	21.770868
246.657791	867.558594	2437.946533	1213.140503	22.006149
247.032196	875.508972	2692.582275	1277.486694	22.122263
247.406586	872.165344	2925.892578	1314.712280	21.548475
247.780960	873.279846	3091.513428	1334.179565	20.777781
248.155289	868.598877	3118.410889	1317.981567	19.974234
248.529602	866.444031	3021.817383	1286.551636	19.491177
248.903870	869.936218	2823.354492	1252.892456	19.604416
249.278122	867.261414	2606.167969	1197.908447	19.014652
249.652344	862.877502	2415.655762	1169.376099	19.738722
250.026550	862.877441	2276.263916	1140.992676	19.677225
250.400711	888.363281	2187.249268	1155.333008	20.553745
250.774857	894.456116	2120.154053	1151.246460	20.950539
251.148987	892.152771	2085.157471	1156.521851	22.159937
251.523071	865.923889	2081.813721	1137.946167	22.372278
251.897125	881.601746	2129.887451	1170.193481	23.119047
252.271164	876.920715	2195.273926	1176.286255	22.707535
252.645187	876.177673	2252.263916	1189.883667	22.796972
253.019165	858.419250	2267.793213	1166.478394	21.857870
253.393112	883.162109	2262.220703	1179.184204	21.465519
253.767044	885.539856	2178.407227	1166.998535	21.770111
254.140930	894.010315	2094.073975	1167.370117	22.778774
254.514801	878.926941	1991.015747	1150.131836	24.386980
254.888657	883.905212	1956.464844	1143.667480	24.218912
255.262466	876.326355	1927.041016	1122.713989	23.449530
255.636276	894.753357	1942.941772	1129.995728	22.442755
256.010010	910.282532	1968.873413	1143.370239	22.018679
256.383759	922.765442	2022.148438	1166.181274	22.141130
256.757446	900.474670	2070.965576	1166.701294	22.744867
257.131134	889.626465	2131.893555	1173.239990	22.830318
257.504791	877.515137	2215.632568	1189.735229	23.332787
257.878418	872.982727	2333.551270	1215.146851	23.426775
258.252014	875.508972	2494.342529	1268.941895	24.303482
258.625580	886.951660	2686.563477	1333.288086	24.801817
258.999115	879.967102	2915.416016	1396.891235	25.396074
259.372650	870.456360	3182.980225	1453.361328	25.206440
259.746124	864.809387	3481.454102	1507.899414	24.576895
260.119598	864.140625	3785.575439	1557.682251	23.739761
260.493042	865.775208	3991.319336	1581.682007	22.905029
260.866425	862.357239	4040.284912	1568.158813	22.209492
261.239838	869.341797	3866.639404	1522.759888	21.800241
261.613159	861.985840	3582.802734	1455.887573	21.828068
261.986511	864.289307	3283.214111	1392.209961	21.824600
262.359802	864.809387	3051.538330	1346.365356	22.021749
262.733063	865.924011	2896.989014	1322.514038	22.480326
263.106293	870.084961	2793.559326	1311.145874	22.930428
263.479523	884.573914	2749.126221	1317.461548	23.216707
263.852692	888.066162	2718.142090	1318.130249	23.499794
264.225861	871.125183	2683.591553	1312.037476	24.326647
264.598969	874.320129	2652.458740	1308.396606	24.411846
264.972076	871.645203	2641.833252	1309.288208	24.722967
265.345154	881.750305	2670.811279	1331.207642	25.122526
265.718201	867.112793	2715.021484	1335.962891	25.371929
266.091217	901.143372	2824.469482	1381.361938	24.968130
266.464203	903.372559	2931.019531	1402.389648	24.610649
266.837158	902.332214	3041.804688	1435.528687	24.921867
267.210114	871.199402	3120.639893	1422.599976	24.512789
267.583038	873.502747	3181.122314	1424.977539	23.897993
267.955902	870.604980	3213.147217	1421.931152	23.535378
268.328766	881.155945	3208.168701	1428.098267	23.504053
268.701569	877.292236	3200.143799	1428.766968	23.741282
269.074371	878.406738	3198.955078	1419.776367	23.329384
269.447144	868.598816	3230.385010	1424.308716	23.529222
269.819885	863.769226	3292.725342	1444.444946	23.906391
270.192596	864.958008	3395.708740	1491.032715	24.738695
270.565277	890.146667	3550.852783	1558.128052	25.105419
270.937927	892.747131	3735.123047	1598.845825	24.841846
271.310577	893.118652	3948.966553	1647.885742	24.699106
271.683136	870.307800	4153.447754	1674.857788	24.505505
272.055725	869.862000	4307.625977	1699.897583	24.144636
272.428284	869.638977	4343.291504	1687.934937	23.557219
272.800812	863.694824	4277.235840	1663.043335	23.416988
273.173279	868.301575	4140.890625	1641.718628	23.633186
273.545776	871.570862	4038.352783	1616.529907	23.524166
273.918152	886.654358	3939.901611	1600.926392	23.393848
274.290558	882.493408	3875.852783	1572.988647	23.067570
274.662964	883.756531	3799.544189	1566.524292	23.416239
275.035278	875.211731	3758.529053	1546.908325	23.295965
275.407593	880.190125	3768.559814	1563.626465	23.661665
275.779907	884.276672	3840.707764	1594.462036	24.021711
276.152161	878.852600	3895.394531	1615.489746	24.419920
276.524384	879.372620	3979.207764	1637.260376	24.449291
276.896606	874.914551	4027.950439	1632.727905	24.034403
277.268799	879.818542	4085.237549	1648.182983	23.970797
277.640930	872.611145	4090.439209	1639.192383	23.822939
278.013031	873.428467	4085.832764	1652.789673	24.260994
278.385162	866.889832	4072.904053	1643.501953	24.223602
278.757233	871.868164	4064.358643	1641.124146	24.095797
279.129272	867.855774	4085.906494	1633.693970	23.798201
279.501282	871.050842	4108.940430	1636.591797	23.643208
279.873230	869.490479	4170.463379	1670.250854	24.258314
280.245178	864.958008	4265.570801	1704.578735	24.690277
280.617126	872.016785	4425.172852	1770.262329	25.280216
280.988983	868.004395	4597.332520	1810.905884	25.283415
281.360870	893.193054	4778.631348	1873.022827	25.217999
281.732697	883.830872	4945.663574	1898.731812	24.986280
282.104492	887.100281	5074.355957	1931.053345	24.931677
282.476288	873.502747	5156.831543	1924.514771	24.537271
282.848053	878.555420	5181.648926	1919.610718	24.193182
283.219757	884.351013	5183.135254	1911.808960	23.901131
283.591461	881.601807	5136.992676	1914.558228	24.274069
283.963135	883.087891	5087.804688	1925.480835	24.791039
284.334747	880.710144	5098.132324	1947.994507	25.306559
284.706360	889.552063	5171.543457	1975.783691	25.367443
285.077942	902.034973	5327.802246	2018.730835	25.231689
285.449524	901.366272	5445.943848	2057.145264	25.432045
285.821014	886.654358	5542.166016	2062.272217	25.252174
286.192535	869.564758	5653.693848	2073.491943	25.165026
286.563995	868.598816	5747.167480	2074.160400	24.711376
286.935425	878.704041	5800.293457	2080.253418	24.413847
287.306824	877.440918	5718.857422	2048.228760	24.182755
287.678223	869.193298	5577.756348	2009.962891	24.227552
288.049561	881.601807	5462.587402	2000.526489	24.425415
288.420898	884.722473	5336.421387	1993.319214	24.902779
288.792145	893.861633	5298.526855	2002.458374	25.168694
289.163452	875.731934	5309.598145	2018.136108	25.765419
289.534668	876.846436	5454.265625	2055.956299	25.759274
289.905914	871.570862	5621.372559	2101.726807	25.899101
290.277039	885.837097	5826.002441	2163.843994	25.869717
290.648193	902.926697	6017.480469	2213.329346	25.621054
291.019318	907.459167	6136.587891	2218.679199	25.075304
291.390381	881.676086	6108.353027	2181.602295	24.870991
291.761475	862.580261	6010.421387	2135.683105	24.730808
292.132507	862.283142	5892.057129	2102.024170	24.648045
292.503510	872.016785	5806.534668	2083.002686	24.541117
292.874481	909.465332	5798.955566	2135.906006	25.083200
293.245422	912.734680	5834.175293	2175.732422	25.663174
293.616364	917.787292	5989.542480	2239.187012	26.054089
293.987213	881.676086	6126.482422	2272.845947	26.524715
294.358093	875.806152	6340.845703	2346.405762	26.909222
294.728943	862.357361	6537.450684	2396.782959	27.037891
295.099731	860.202576	6759.987793	2449.166260	26.932568
295.470490	860.128235	6917.806152	2491.221436	26.926048
295.841248	871.422180	7023.242188	2546.651367	27.231441
296.211975	869.787598	7114.931152	2590.564209	27.553837
296.582642	870.530579	7278.471191	2648.669189	27.748989
296.953308	864.363525	7447.732910	2685.300293	27.659649
297.323883	864.214905	7554.729004	2690.575928	27.297770
297.694519	867.632813	7561.192871	2676.606689	27.025587
298.065063	874.245789	7480.798340	2639.901367	26.725822
298.435608	874.394348	7270.520996	2577.784180	26.631586
298.806122	871.347900	6948.642090	2473.017578	26.354980
299.176575	877.366516	6616.136719	2394.182373	26.431028
299.547028	875.657532	6392.040527	2337.489502	26.499830
299.917450	867.484314	6259.707031	2304.350342	26.647007
300.287872	857.899231	6173.070313	2274.554932	26.653061
300.658234	855.149963	6097.652832	2249.738037	26.601570
301.028564	862.728821	6033.306152	2244.388184	26.721571
301.398865	858.345032	5968.812012	2215.707275	26.560436
301.769135	867.558594	5911.450684	2198.691650	26.390989
302.139374	873.874329	5877.642090	2178.035400	26.063583
302.509583	869.193176	5839.673828	2162.952148	26.028852
302.879791	869.861877	5772.207031	2130.779053	25.720694
303.249939	863.471863	5682.449219	2093.702148	25.528864
303.620087	875.508972	5592.691406	2053.653076	24.975586
303.990173	871.719482	5519.429199	2043.622070	25.214624
304.360260	880.561523	5475.664551	2054.916016	25.556652
304.730286	886.208496	5456.123047	2076.760986	26.051964
305.100281	897.354004	5459.986816	2094.742188	26.243361
305.470276	886.282776	5458.724121	2095.039307	26.435694
305.840179	874.022888	5460.581543	2102.692627	26.788488
306.210144	860.797058	5468.680176	2099.126221	26.874142
306.579987	881.750488	5496.767090	2130.259033	27.053175
306.949890	890.815369	5536.221191	2160.500244	27.332054
307.319702	900.326111	5617.062500	2207.905273	27.722116
307.689484	877.812317	5704.368652	2227.521240	27.964224
308.059265	875.508972	5839.971191	2280.127686	28.293470
308.429016	860.054016	5948.229980	2307.099609	28.439381
308.798737	863.917725	6082.568848	2353.241455	28.538479
309.168396	860.202576	6199.150391	2375.532471	28.382555
309.538055	872.462585	6285.712891	2391.061523	28.053364
309.907684	875.434631	6297.155762	2372.262939	27.607992
310.277313	876.846375	6322.566895	2353.315674	27.112467
310.646851	873.131287	6336.981934	2347.966064	26.992588
311.016388	887.323059	6370.492676	2354.653320	26.760624
311.385895	913.700500	6334.529785	2353.687256	26.563959
311.755371	910.505554	6279.322754	2316.164551	26.181910
312.124817	894.456238	6213.639160	2262.443604	25.717997
312.494232	875.880432	6138.296387	2208.722656	25.327574
312.863617	873.279846	6075.064453	2188.215088	25.278542
313.232971	876.697754	6022.087402	2181.007568	25.349096
313.602295	861.911560	6013.021973	2175.063477	25.492598
313.971619	867.409973	6070.234863	2190.444092	25.429152
314.340820	864.289246	6100.625000	2193.713379	25.388441
314.710083	878.852600	6168.463379	2215.261475	25.264788
315.079285	885.539856	6170.543457	2200.623779	24.883314
315.448486	904.041199	6187.484375	2196.017090	24.453293
315.817596	912.065918	6070.086426	2140.289795	23.811924
316.186707	907.904968	5901.642090	2084.711426	23.565645
316.555786	890.072266	5695.525879	2036.488892	23.856575
316.924866	878.481018	5517.720215	2003.275757	24.245239
317.293884	881.304504	5430.042969	2000.675171	24.608376
317.662872	889.552185	5398.835449	2010.780273	24.864883
318.031830	875.583252	5429.448242	2033.516968	25.427492
318.400757	878.852539	5474.996094	2059.820313	25.694754
318.769684	867.112793	5520.470215	2074.680664	25.950464
319.138550	864.586426	5529.832031	2079.287598	26.037239
319.507416	859.905334	5513.335938	2083.596924	26.296549
319.876190	855.521484	5490.599609	2078.841553	26.392653
320.244995	887.025879	5484.209473	2090.284180	26.173815
320.613770	887.694580	5437.770508	2074.531982	26.083902
320.982483	898.171204	5387.839355	2064.501221	25.978092
321.351166	876.623474	5320.148926	2048.302979	26.368240
321.719818	873.651367	5312.198730	2068.513428	26.920115
322.088440	869.490417	5362.204590	2096.525391	27.311661
322.457062	872.908386	5475.962402	2163.249512	28.032280
322.825623	881.378906	5633.781250	2207.385010	27.901806
323.194183	875.806152	5803.414063	2258.654297	28.063274
323.562653	875.657532	5965.988281	2281.613525	27.620132
323.931183	868.747498	6092.674316	2295.062500	27.303501
324.299591	867.335632	6180.128906	2288.895264	26.757290
324.668060	868.004333	6210.742188	2262.592041	26.102491
325.036407	870.679260	6192.463379	2229.156006	25.526718
325.404755	875.806152	6122.989746	2186.431641	24.977694
325.773102	866.146790	6025.802246	2143.410400	24.754826
326.141388	869.118958	5919.103516	2120.450928	24.778929
326.509674	868.153015	5820.949707	2099.943359	24.870600
326.877899	876.623535	5758.238281	2074.606201	24.540705
327.246124	868.004395	5707.488770	2046.817017	24.358227
327.614288	882.790588	5660.529785	2024.080444	23.887653
327.982422	880.338623	5608.146484	2013.752441	23.973349
328.350525	895.867981	5576.122559	2015.684204	23.926395
328.718628	887.471680	5558.661621	2021.256958	24.271873
329.086700	895.273438	5575.602051	2032.848267	24.305449
329.454712	885.911316	5612.827637	2024.452026	24.086330
329.822693	883.979492	5669.148926	2030.173340	23.953047
330.190674	888.140381	5722.349609	2043.101929	23.891428
330.558563	894.901917	5755.786621	2062.346436	24.017120
330.926483	899.360107	5786.695801	2072.377197	24.001156
331.294312	882.121887	5839.524902	2081.590576	24.195507
331.662231	876.995056	5957.220703	2125.206299	24.569996
332.029999	870.679260	6074.990723	2159.682861	24.767996
332.397766	882.047546	6194.023438	2195.793945	24.731781
332.765503	892.970154	6272.041016	2218.976563	24.651217
333.133240	889.106384	6351.248047	2245.576904	24.834040
333.500916	882.344788	6409.056152	2272.400146	25.151583
333.868561	858.047791	6433.575684	2260.734619	25.157919
334.236176	852.920898	6422.281250	2256.276611	25.197790
334.603790	851.657776	6357.341309	2244.313721	25.294880
334.971344	857.527771	6314.468262	2256.053467	25.628384
335.338867	864.140686	6261.712891	2255.013428	25.768488
335.706360	856.933289	6253.911621	2259.322754	25.984713
336.073853	855.595886	6221.812500	2254.938721	26.076897
336.441284	858.939453	6228.500000	2279.607422	26.457808
336.808655	869.639099	6239.273926	2291.495850	26.479580
337.176086	868.375916	6253.168457	2311.483643	26.799690
337.543396	872.016663	6258.964355	2319.359375	26.867584
337.910706	865.923889	6237.268066	2320.325195	27.077045
338.277954	879.447021	6238.828125	2325.303467	26.978050
338.645264	876.029114	6211.410156	2312.375000	26.921152
339.012421	879.075500	6177.305176	2280.499023	26.450790
339.379669	878.183899	6144.760254	2245.279541	25.957960
339.746796	897.205383	6150.630859	2216.301514	25.109259
340.113953	903.966980	6184.587402	2211.917725	24.768883
340.481018	895.199219	6178.494141	2215.335693	24.986992
340.848114	875.731873	6202.196777	2218.307861	25.205759
341.215118	869.193176	6241.502441	2227.447021	25.282497
341.582153	878.035217	6353.402832	2248.697510	25.033247
341.949066	884.053772	6456.312500	2273.143066	24.928658
342.316010	886.357117	6576.385254	2307.322266	24.972900
342.682922	872.016785	6684.941895	2325.377930	25.002232
343.049835	861.391418	6828.271484	2377.315430	25.405642
343.416656	883.459290	7051.550781	2459.791504	25.556240
343.783478	889.106262	7325.282715	2532.756836	25.537689
344.150269	896.759521	7638.616699	2595.171143	25.192043
344.516998	885.911377	7885.747559	2606.465088	24.579914
344.883728	897.056824	8041.412109	2608.099854	23.949577
345.250427	894.381897	8053.671875	2568.050537	23.377579
345.617065	883.979492	7958.490234	2523.691895	23.177750
345.983704	874.988953	7813.525391	2471.011475	23.002293
346.350281	874.765930	7646.344238	2434.231689	23.029577
346.716827	872.611145	7472.921875	2389.204102	22.977600
347.083405	868.970276	7304.923828	2364.610107	23.238823
347.449860	923.211243	7241.691895	2400.498291	23.380417
347.816376	947.359619	7170.955566	2415.507080	23.590019
348.182770	948.028320	7076.368652	2415.209961	23.940929
348.549194	893.490173	6955.402832	2362.157959	24.227795
348.915558	876.846375	6970.635254	2374.715088	24.580252
349.281921	874.765869	7038.399902	2407.036865	24.859865
349.648193	874.245789	7117.011719	2428.807373	24.901806
350.014526	870.233398	7159.364746	2458.825439	25.259323
350.380737	871.496582	7228.243652	2483.791260	25.363518
350.746948	879.521301	7329.592285	2550.738037	25.910053
351.113159	875.063171	7374.024902	2578.378906	26.209042
351.479309	873.428528	7434.210449	2604.905029	26.391315
351.845428	864.512207	7469.800781	2611.220703	26.444090
352.211517	855.447266	7576.053223	2638.043945	26.524345
352.577576	861.465820	7675.099121	2680.990723	26.704180
352.943604	868.004395	7801.710938	2735.231689	26.929714
353.309601	898.022766	7962.354004	2805.224854	26.997633
353.675537	892.450012	8155.540527	2870.834229	27.238878
354.041473	880.487305	8354.671875	2937.112305	27.516380
354.407379	862.506042	8504.837891	2971.960205	27.602230
354.773254	865.032288	8690.743164	3023.080811	27.576389
355.139038	873.205566	8868.549805	3057.780029	27.323082
355.504913	891.781250	9124.151367	3133.048584	27.225056
355.870636	883.236511	9369.499023	3192.862061	27.216049
356.236389	885.985657	9625.842773	3280.167969	27.393837
356.602081	871.570984	9895.785156	3355.213623	27.521982
356.967804	879.149841	10151.757813	3421.789063	27.420969
357.333405	872.016785	10411.965820	3448.166260	27.003807
357.699036	864.363586	10613.846680	3448.091797	26.501181
358.064606	859.608215	10764.161133	3423.794922	25.888971
358.430176	860.574219	10805.622070	3379.956787	25.333036
358.795654	861.465820	10811.714844	3342.656494	24.935966
359.161163	864.066406	10804.209961	3343.622314	24.944870
359.526581	861.317200	10926.512695	3398.531982	25.207806
359.892029	884.202454	11207.153320	3515.930420	25.493950
360.257416	884.276672	11614.852539	3642.170654	25.701267
360.622772	885.316895	12126.055664	3771.606201	25.677044
360.988098	869.267517	12628.937500	3854.230469	25.383049
361.353394	874.617371	13132.262695	3908.026123	24.747074
361.718658	888.437683	13428.953125	3912.484131	24.114210
362.083893	884.350891	13483.863281	3839.072998	23.451082
362.449097	889.997864	13245.054688	3709.266357	22.818743
362.814209	881.527405	12775.833008	3509.912109	22.097841
363.179382	885.242615	12116.840820	3312.712646	21.612862
363.544434	878.183777	11394.323242	3149.617920	21.599504
363.909546	873.576965	10738.303711	3026.944336	21.828962
364.274536	877.143555	10264.326172	2951.527100	22.098042
364.639587	883.905090	9930.186523	2902.784424	22.317230
365.004517	886.134277	9710.622070	2892.456299	22.735846
365.369507	883.830872	9533.187500	2875.886719	23.031261
365.734344	871.199402	9430.129883	2870.016846	23.353588
366.099274	869.638977	9366.750000	2877.150146	23.625809
366.464081	870.827881	9306.861328	2882.574219	23.847065
366.828918	878.332458	9241.103516	2887.552490	24.025766
367.193665	885.094055	9161.600586	2867.490967	23.952097
367.558411	898.840027	9105.575195	2867.342041	23.986420
367.923126	894.902039	9018.567383	2861.323486	24.206085
368.287781	905.675964	8944.487305	2874.326416	24.489321
368.652435	884.871094	8833.033203	2864.815674	24.910723
369.017059	896.908203	8784.884766	2864.666992	24.946306
369.381653	897.131104	8744.910156	2880.791016	25.276703
369.746185	901.440735	8759.844727	2916.604736	25.643427
370.110687	895.793701	8778.049805	2949.669189	26.056950
370.475220	881.601868	8824.786133	2981.099365	26.431435
370.839661	890.889648	8931.038086	3036.009033	26.680098
371.204041	888.809265	9029.118164	3065.135742	26.735182
371.568451	885.614075	9089.303711	3081.036865	26.761408
371.932770	870.307800	9095.841797	3078.436279	26.844803
372.297150	878.258118	9089.823242	3091.290283	26.950188
372.661377	878.332458	9092.646484	3097.606201	27.017151
373.025696	885.985596	9079.867188	3098.794922	27.005629
373.389862	872.388184	9067.979492	3107.860107	27.276516
373.754059	888.734863	9105.129883	3144.788330	27.457949
374.118225	876.772156	9172.373047	3174.286377	27.695574
374.482361	877.069336	9312.136719	3215.970459	27.728304
374.846436	855.224304	9467.281250	3245.394287	27.753765
375.210510	862.283020	9706.312500	3326.458252	27.862587
375.574524	876.772156	9971.499023	3430.259521	28.076571
375.938538	889.552246	10282.530273	3515.707764	27.958710
376.302460	891.632629	10574.094727	3589.712891	27.865644
376.666412	894.604797	10851.763672	3652.795898	27.700583
377.030304	894.827637	11057.062500	3679.842041	27.405533
377.394196	894.307617	11155.067383	3648.858154	26.845484
377.757996	891.409668	11174.980469	3566.158936	26.009928
378.121796	885.762756	11032.468750	3456.116455	25.331903
378.485565	887.100159	10840.543945	3341.764648	24.661461
378.849304	864.289246	10520.670898	3228.304688	24.481379
379.212982	863.992004	10268.264648	3171.166016	24.533255
379.576630	870.753601	10003.152344	3126.138428	24.696522
379.940277	889.997986	9860.713867	3103.847656	24.678629
380.303864	892.227051	9723.700195	3068.999268	24.647896
380.667450	881.230286	9692.567383	3048.789063	24.599659
381.030945	873.577087	9647.614258	3018.919678	24.451031
381.394501	891.261169	9685.954102	3028.132813	24.297283
381.757935	915.483887	9708.913086	3043.290771	24.197691
382.121399	921.651062	9756.690430	3056.591064	24.164465
382.484741	914.072083	9878.621094	3084.157227	24.207411
382.848145	887.545959	9972.316406	3124.057861	24.618256
383.211487	884.796814	10091.944336	3164.552734	24.760719
383.574768	872.611145	10217.069336	3203.859131	24.947922
383.938019	870.604980	10319.384766	3218.199219	24.845476
384.301270	871.050781	10432.176758	3273.926514	25.131723
384.664459	870.902161	10453.278320	3297.034424	25.318693
385.027649	879.372742	10492.956055	3351.870117	25.718790
385.390778	885.391174	10560.051758	3418.965576	26.187737
385.753876	897.131042	10638.886719	3524.103516	26.966108
386.116943	894.010254	10727.009766	3626.418701	27.788147
386.479980	889.775085	10773.894531	3720.560303	28.639730
386.842987	888.586182	10858.599609	3814.181641	29.343946
387.205994	897.651184	10941.000977	3933.065674	30.223129
387.568909	889.032043	10989.149414	4034.860596	31.146456
387.931793	882.493408	10942.562500	4125.583984	32.237259
388.294678	873.056946	10885.720703	4214.375488	33.370926
388.657471	876.846375	10863.355469	4316.468262	34.442684
389.020294	895.496338	10848.270508	4485.952637	36.074928
389.383057	906.418884	10930.523438	4690.507813	37.749893
389.745819	907.013367	10990.858398	4930.431152	39.899639
390.108521	896.388000	11169.333008	5156.980469	41.473911
390.471191	889.626465	11355.015625	5402.179199	43.118828
390.833801	885.911316	11613.738281	5645.520996	44.366951
391.196442	879.744202	11859.458008	5897.035645	45.696014
391.558960	872.016785	12046.700195	6119.572266	46.959324
391.921509	872.388245	12167.071289	6255.843750	47.663628
392.284027	871.050781	12237.213867	6382.975098	48.494152
392.646484	870.604980	12259.577148	6474.739746	49.206676
393.008911	865.329407	12185.497070	6581.066406	50.491627
393.371307	866.295410	12127.096680	6706.267090	51.861069
393.733673	873.279846	12046.848633	6810.736328	53.138409
394.096008	873.131165	12016.979492	6908.146484	54.155575
394.458344	875.583252	11963.629883	6974.201660	55.001736
394.820587	867.855774	11872.163086	6985.421875	55.592464
395.182831	870.010559	11755.953125	6975.763184	56.088413
395.545013	862.134460	11534.160156	6893.732422	56.517838
395.907196	871.942383	11310.805664	6855.540527	57.320400
396.269287	881.527527	11072.516602	6859.404297	58.658455
396.631409	885.762695	10897.534180	6881.917969	59.891052
396.993469	891.781189	10757.473633	6926.054199	61.164211
397.355530	895.273438	10666.601563	6970.858887	62.177685
397.717499	895.422119	10637.325195	7041.445801	63.088528
398.079468	883.459412	10630.043945	7073.841797	63.513348
398.441376	872.313965	10675.741211	7127.785156	63.809021
398.803284	865.255188	10662.812500	7161.816406	64.266640
399.165131	875.434753	10679.381836	7231.660645	64.833336
399.526978	887.174500	10650.922852	7264.130859	65.312592
399.888763	890.666748	10653.375000	7307.747559	65.730545
400.250519	882.642029	10643.790039	7334.718750	66.099564
400.612244	898.840088	10680.496094	7424.030762	66.708443
400.973938	913.700623	10676.781250	7497.218750	67.432793
401.335602	919.496155	10722.625977	7579.992188	67.942543
401.697205	922.394043	10845.522461	7687.805176	68.178207
402.058807	916.078308	11041.383789	7828.608887	68.269844
402.420349	917.787292	11331.387695	8064.223145	68.625984
402.781860	894.679138	11629.043945	8260.234375	68.616585
403.143341	894.679016	12026.934570	8479.500977	68.133736
403.504822	890.815369	12411.006836	8673.430664	67.556305
403.866241	895.645020	12829.405273	8879.917969	66.904922
404.227631	891.409729	13128.770508	9025.031250	66.465492
404.588959	897.056824	13401.164063	9123.631836	65.790985
404.950287	894.233215	13445.151367	9152.906250	65.801346
405.311554	893.193054	13343.653320	9116.944336	66.051781
405.672821	893.415955	13046.963867	9032.313477	66.967255
406.034027	887.174561	12674.409180	8905.180664	68.022789
406.395203	890.443848	12276.295898	8779.385742	69.287239
406.756348	882.716309	11996.100586	8689.924805	70.250504
407.117493	887.917480	11823.644531	8654.186523	71.017403
407.478516	883.013489	11781.143555	8694.161133	71.674202
407.839600	882.790588	11769.476563	8750.927734	72.273026
408.200592	891.186829	11850.020508	8870.926758	72.815590
408.561554	898.319824	11867.629883	9000.734375	73.864395
408.922485	898.245605	11914.663086	9139.085938	74.805077
409.283417	893.936035	11925.437500	9230.403320	75.569641
409.644257	897.502625	12064.309570	9346.910156	75.665382
410.005096	907.384827	12211.057617	9498.042969	75.998825
410.365906	907.607727	12309.731445	9584.382813	76.097885
410.726715	900.920471	12379.352539	9660.765625	76.315697
411.087433	894.530457	12354.758789	9634.090820	76.259918
411.448120	892.524231	12340.789063	9624.727539	76.275345
411.808807	892.970032	12269.385742	9624.505859	76.751205
412.169434	890.815247	12156.668945	9622.649414	77.507080
412.530029	911.620056	12150.204102	9719.316406	78.370163
412.890564	914.220703	12154.440430	9803.500977	79.084579
413.251099	925.886230	12261.137695	9965.629883	79.748947
413.611572	912.140198	12326.821289	10128.055664	80.737389
413.972076	914.815186	12456.182617	10279.781250	81.142601
414.332489	906.418945	12558.051758	10412.708984	81.587624
414.692871	910.877014	12739.424805	10609.612305	81.994301
415.053223	908.870789	12910.171875	10831.776367	82.681915
415.413574	912.957458	13178.331055	11130.473633	83.303749
415.773834	905.973083	13392.397461	11388.453125	83.951019
416.134094	910.208313	13634.028320	11700.226563	84.801720
416.494263	903.372498	13864.441406	11999.219727	85.609047
416.854462	902.257996	14230.010742	12375.936523	86.088623
417.214630	903.892578	14634.143555	12794.112305	86.598709
417.574738	908.127869	15043.403320	13236.508789	87.217125
417.934784	912.363098	15484.389648	13713.235352	87.845520
418.294861	918.381653	16039.133789	14208.538086	87.893486
418.654846	915.929626	16637.865234	14801.176758	88.317673
419.014832	915.632385	17287.716797	15397.531250	88.454826
419.374756	896.536621	17923.154297	16035.046875	88.910851
419.734680	925.217468	18688.396484	16696.193359	88.784645
420.094543	923.954346	19320.787109	17280.287109	88.908424
420.454376	931.756165	19865.650391	17725.656250	88.697548
420.814148	908.573730	20286.947266	18036.613281	88.387398
421.173920	902.183655	20719.759766	18279.509766	87.686432
421.533691	907.979309	21067.791016	18456.794922	87.048508
421.893341	900.474670	21244.113281	18506.875000	86.544991
422.253021	898.914307	21294.937500	18512.966797	86.360229
422.612640	894.233215	21225.240234	18433.019531	86.266197
422.972260	902.406555	21151.458984	18428.115234	86.550758
423.331757	902.480896	21096.177734	18448.919922	86.890671
423.691315	923.582825	21238.541016	18617.365234	87.097313
424.050781	937.105957	21387.740234	18674.501953	86.732742
424.410248	939.557922	21410.996094	18569.068359	86.117592
424.769653	913.849121	21297.982422	18326.169922	85.420952
425.128998	901.440613	21117.353516	17995.523438	84.557564
425.488373	899.731628	20800.007813	17577.275391	83.805588
425.847656	903.669678	20399.591797	17144.833984	83.305443
426.206940	908.425049	19983.791016	16699.908203	82.784698
426.566193	918.604492	19543.693359	16289.534180	82.528084
426.925385	912.808899	19094.757813	15810.504883	81.936737
427.284576	900.474670	18525.078125	15336.824219	81.910210
427.643677	900.400391	18070.125000	14966.648438	81.924713
428.002777	904.264160	17658.412109	14698.043945	82.330528
428.361847	915.335205	17281.400391	14470.530273	82.825012
428.720856	912.288818	16921.330078	14221.913086	83.138168
429.079865	910.728516	16688.392578	14048.565430	83.268578
429.438812	902.555176	16534.212891	13924.479492	83.304817
429.797760	899.360168	16456.937500	13862.286133	83.322266
430.156616	906.641785	16248.444336	13703.948242	83.414619
430.515503	909.465332	16108.831055	13595.243164	83.462547
430.874268	905.304382	16025.536133	13527.924805	83.481659
431.233093	892.970154	16041.213867	13579.268555	83.747650
431.591827	891.558350	16121.757813	13689.161133	84.027809
431.950562	892.672913	16197.621094	13816.442383	84.441772
432.309204	901.514893	16333.596680	13909.692383	84.293083
432.667877	900.920410	16519.576172	14040.316406	84.126289
433.026459	907.904968	16850.371094	14165.590820	83.159569
433.385010	907.459167	17288.087891	14319.546875	81.877731
433.743561	904.709900	17903.833984	14465.402344	79.772888
434.102051	907.756287	18540.236328	14578.863281	77.533661
434.460510	921.948181	19289.134766	14768.260742	75.386131
434.818939	925.068909	19888.458984	14842.637695	73.391769
435.177338	918.827454	20424.332031	14907.578125	71.716942
435.535675	904.487000	20674.435547	14890.192383	70.742241
435.894012	917.192810	20674.210938	14854.301758	70.542580
436.252289	921.725281	20530.509766	14922.512695	71.400581
436.610535	933.465088	20071.986328	14887.367188	72.910034
436.968719	954.938538	19647.570313	15050.758789	75.408432
437.326935	952.412292	19065.333984	15146.684570	78.365448
437.685028	951.149170	18609.708984	15293.729492	81.221680
438.043152	926.332031	18259.001953	15395.375000	83.478439
438.401215	922.245361	18214.791016	15625.789063	85.028221
438.759277	911.025635	18396.535156	15964.682617	86.092186
439.117249	920.239075	18862.414063	16462.509766	86.624222
439.475250	937.031555	19266.992188	16898.591797	87.079079
439.833130	949.142883	19799.224609	17391.294922	87.225891
440.191071	940.672363	20079.865234	17614.650391	87.119545
440.548889	928.263855	20326.029297	17775.142578	86.849586
440.906708	913.180420	20455.244141	17791.044922	86.366852
441.264496	912.957520	20468.244141	17735.984375	86.028023
441.622223	913.403320	20397.138672	17616.505859	85.728439
441.979950	919.942078	20172.445313	17385.722656	85.525398
442.337616	918.604492	19997.982422	17188.671875	85.275665
442.695251	921.799561	19745.205078	16984.189453	85.332001
443.052887	911.620117	19511.152344	16874.148438	85.822205
443.410461	898.840027	19380.156250	16914.123047	86.656616
443.768005	902.406555	19383.869141	17056.708984	87.408142
444.125458	912.511719	19468.873047	17283.408203	88.222557
444.482941	921.502380	19695.718750	17625.869141	88.975044
444.840393	919.124695	20027.333984	18062.175781	89.715637
445.197754	919.050476	20500.716797	18524.263672	89.906616
445.555084	911.248718	20844.960938	18888.941406	90.187378
445.912415	902.257996	21234.531250	19218.994141	90.087006
446.269714	903.743958	21425.710938	19429.046875	90.270599
446.626953	912.214539	21576.396484	19527.201172	90.083344
446.984161	918.158691	21637.546875	19508.476563	89.724258
447.341309	935.545593	21711.105469	19405.939453	88.904434
447.698456	948.028503	21722.175781	19296.564453	88.323891
448.055542	951.817871	21632.271484	19108.951172	87.798523
448.412598	939.186340	21347.837891	18813.298828	87.581055
448.769653	929.452820	20964.068359	18391.781250	87.160789
449.126617	927.595154	20485.111328	17953.320313	87.054642
449.483582	952.635193	20146.365234	17686.052734	87.181686
449.840515	957.464844	19761.849609	17402.513672	87.453270
450.197388	950.331787	19485.666016	17193.128906	87.631531
450.554230	936.288574	19258.744141	16989.912109	87.617203
450.911041	927.446533	19143.501953	16915.087891	87.766762
451.267822	932.647766	19067.861328	16905.056641	88.074013
451.624573	908.350769	18967.107422	16883.212891	88.460480
451.981262	903.744080	18917.769531	16825.404297	88.384796
452.337921	901.143372	18750.439453	16642.398438	88.189774
452.694580	902.034973	18542.988281	16371.488281	87.690575
453.051147	907.384827	18354.853516	16185.659180	87.567284
453.407715	906.493164	18099.324219	15885.328125	87.122559
453.764221	940.895325	18026.283203	15773.278320	86.813263
454.120728	952.337891	17693.558594	15426.434570	86.457832
454.477142	951.892151	17579.132813	15338.459961	86.524086
454.833557	933.910889	17370.935547	15137.098633	86.409721
455.189911	926.777832	17297.451172	15075.204102	86.425430
455.546265	931.533203	17217.203125	15039.910156	86.630623
455.902557	932.721985	17154.044922	15054.028320	87.053978
456.258820	932.499207	17269.216797	15196.614258	87.313225
456.615051	933.539368	17420.867188	15339.500000	87.375961
456.971252	941.638367	17543.615234	15520.500977	87.814018
457.327393	941.489746	17837.259766	15865.934570	88.332436
457.683502	941.118225	18237.677734	16375.874023	89.235992
458.039612	941.118225	18950.537109	17123.060547	89.852669
458.395630	955.087158	19710.060547	17923.005859	90.471565
458.751648	949.440125	20425.445313	18560.671875	90.425278
459.107605	941.192566	21238.763672	19263.650391	90.269211
459.463562	927.595154	21821.818359	19599.720703	89.365013
459.819458	939.186340	22206.111328	19698.617188	88.209419
460.175323	923.211243	22259.091797	19384.615234	86.527496
460.531158	925.960449	22190.583984	18954.103516	84.779976
460.886932	922.468262	21923.539063	18361.388672	83.038246
461.242676	937.923157	21496.519531	17711.984375	81.591469
461.598419	941.341125	20892.291016	17121.873047	81.101563
461.954102	938.666260	20226.240234	16583.251953	81.112251
462.309723	940.598206	19524.376953	16082.230469	81.477676
462.665344	928.635437	18929.138672	15641.168945	81.734009
463.020905	925.514709	18542.837891	15392.774414	82.119514
463.376373	926.183411	18295.781250	15292.390625	82.708923
463.731873	941.638428	18105.863281	15252.788086	83.377777
464.087341	943.050110	17988.392578	15244.465820	83.902199
464.442749	945.204895	17941.580078	15293.506836	84.419777
464.798126	934.728210	17902.570313	15323.971680	84.803024
465.153503	933.316406	18011.275391	15457.046875	85.043716
465.508820	914.592102	18112.773438	15555.199219	85.128807
465.864105	914.740723	18277.726563	15702.988281	85.171112
466.219330	926.926453	18489.044922	15920.027344	85.371819
466.574524	936.139954	18612.607422	16017.883789	85.321030
466.929657	936.957336	18649.908203	15980.434570	84.929253
467.284790	945.353516	18634.677734	15873.959961	84.393311
467.639893	946.096497	18576.421875	15729.960938	83.854744
467.994934	940.152283	18541.351563	15628.684570	83.451881
468.349945	924.994568	18362.802734	15437.653320	83.225250
468.704926	925.143127	18189.750000	15298.484375	83.253212
469.059875	949.217285	17958.744141	15142.746094	83.444580
469.414764	950.183167	17770.312500	15069.632813	83.943764
469.769653	943.718933	17661.013672	15028.320313	84.251678
470.124451	930.047119	17672.607422	15097.125000	84.617157
470.479248	926.554871	17636.865234	15082.114258	84.711533
470.834015	929.601257	17594.958984	15130.262695	85.210663
471.188721	926.777771	17700.541016	15306.731445	85.728844
471.543365	940.449402	17876.861328	15583.956055	86.461685
471.898010	947.879700	18078.074219	15810.355469	86.761856
472.252625	953.303894	18278.693359	16050.874023	87.141312
472.607178	949.737305	18526.492188	16325.199219	87.476120
472.961700	950.703308	18696.201172	16546.994141	87.888718
473.316193	958.876648	18867.169922	16691.365234	87.850296
473.670654	956.350281	18909.892578	16686.013672	87.613144
474.025055	965.861023	19039.998047	16775.029297	87.468452
474.379456	948.028381	19082.945313	16845.244141	87.660820
474.733795	953.155273	19212.603516	17009.453125	87.934181
475.088104	930.195801	19365.814453	17239.271484	88.465034
475.442383	942.901550	19543.025391	17492.419922	88.975311
475.796570	934.431091	19770.021484	17791.638672	89.496574
476.150787	956.276062	20110.328125	18187.820313	89.962921
476.504944	957.241943	20474.560547	18553.611328	90.157722
476.859070	972.919739	20825.642578	18916.208984	90.382004
477.213135	963.632019	21106.505859	19169.802734	90.385170
477.567200	955.755920	21456.992188	19492.130859	90.415886
477.921173	943.347351	21807.330078	19794.169922	90.351028
478.275146	947.211121	22191.771484	20106.318359	90.183594
478.629089	960.659912	22435.335938	20379.082031	90.424751
478.983002	972.474060	22835.009766	20788.787109	90.640503
479.336823	975.371826	23241.966797	21285.945313	91.215446
479.690643	968.684570	23788.833984	21873.234375	91.605675
480.044403	959.099548	24388.828125	22556.595703	92.179878
480.398163	967.718689	25331.728516	23538.804688	92.641098
480.751862	968.090149	26542.271484	24888.437500	93.533188
481.105499	964.300781	28217.201172	26721.041016	94.510086
481.459137	952.783875	30512.634766	29262.865234	95.772072
481.812744	952.338074	33480.953125	32636.876953	97.405128
482.166290	966.306946	37165.105469	36834.460938	99.086586
482.519806	971.805359	41348.277344	41475.628906	100.315407
482.873291	975.817688	45704.343750	45972.128906	100.598686
483.226715	983.916687	49577.375000	49533.160156	99.909012
483.580139	982.727722	51805.863281	51022.636719	98.458916
483.933502	990.975403	53572.261719	51638.160156	96.321693
484.286804	998.182800	54244.105469	50862.812500	93.649666
484.640106	1001.154968	54707.160156	49568.234375	90.431374
484.993347	991.346924	53968.886719	47139.281250	87.108490
485.346558	971.953918	52692.667969	44763.156250	84.668594
485.699738	961.031433	51301.718750	43065.785156	83.639610
486.052887	954.715637	49860.988281	42180.464844	84.295425
486.405975	956.350342	49189.738281	42350.621094	85.820786
486.759064	967.495789	48847.425781	42967.332031	87.719086
487.112061	977.823792	48889.109375	43503.500000	88.759209
487.464996	975.000305	48909.019531	43473.628906	88.660683
487.817963	970.987976	48801.281250	42911.828125	87.686775
488.170868	960.734192	48229.378906	41711.019531	86.209969
488.523743	963.483337	47287.667969	40096.125000	84.475616
488.876587	966.158386	46072.515625	38335.968750	82.848213
489.229401	995.136414	44796.144531	36907.941406	81.990822
489.582153	992.758728	43494.808594	35931.976563	82.205963
489.934845	1003.904114	42614.246094	35692.277344	83.364792
490.287537	981.241760	42352.105469	36121.597656	84.939865
490.640198	995.582214	42608.078125	37082.261719	86.720779
490.992798	977.526611	42845.625000	37808.269531	87.968513
491.345337	975.966248	43082.949219	38083.042969	88.125710
491.697876	971.285156	42834.925781	37373.230469	86.953606
492.050354	1006.430359	42356.265625	36090.542969	84.847046
492.402832	1031.098999	41231.394531	34128.355469	82.330879
492.755219	1038.900757	39721.339844	32055.679688	80.183105
493.107605	1010.071228	37657.214844	29755.640625	78.438774
493.459930	992.833008	35556.230469	27724.279297	77.340324
493.812225	991.792786	33409.847656	25941.013672	76.960884
494.164490	992.387146	31668.193359	24750.830078	77.450104
494.516724	986.294250	30203.015625	23974.294922	78.680969
494.868896	975.223145	29236.859375	23631.087891	80.164734
495.221039	983.768005	28675.275391	23550.990234	81.495102
495.573120	987.706055	28307.552734	23563.029297	82.633423
495.925201	1032.659180	28227.376953	23707.843750	83.380836
496.277222	1048.411499	28216.906250	23815.806641	83.800720
496.629211	1049.228638	28296.708984	23892.484375	83.836212
496.981140	996.473816	28263.642578	23807.333984	83.656868
497.333069	979.830017	28122.912109	23644.687500	83.501411
497.684967	971.062256	28000.609375	23411.970703	83.023621
498.036804	966.306885	27724.427734	23018.984375	82.414894
498.388580	964.449280	27371.859375	22594.564453	81.909264
498.740326	976.040527	26895.501953	22146.744141	81.678795
499.092072	983.916687	26379.322266	21720.990234	81.656792
499.443756	977.229431	25896.578125	21290.255859	81.515076
499.795410	978.195313	25418.960938	20910.568359	81.553802
500.147003	991.569824	25087.273438	20660.539063	81.628532
500.498566	1003.606873	24694.062500	20374.326172	81.765923
500.850098	995.433594	24365.943359	20144.806641	81.938194
501.201599	987.557556	23998.291016	19928.806641	82.314842
501.553009	983.247864	23745.960938	19795.433594	82.644745
501.904449	991.198242	23545.193359	19703.744141	82.967766
502.255859	1005.984436	23477.208984	19710.357422	83.237000
502.607178	1009.328125	23469.181641	19801.005859	83.667854
502.958405	997.142395	23490.431641	19890.318359	83.994720
503.309692	976.634949	23472.228516	19899.828125	84.119553
503.660919	966.455383	23490.283203	19944.335938	84.256905
504.012115	989.266357	23511.533203	19952.435547	84.197426
504.363251	995.730774	23541.552734	19982.677734	84.214928
504.714294	998.702820	23527.955078	19921.673828	83.992897
505.065369	1002.566650	23518.296875	19901.091797	83.934761
505.416443	1011.111389	23418.431641	19843.433594	84.045403
505.767395	1017.947266	23320.578125	19839.271484	84.390602
506.118317	1005.241516	23177.099609	19762.443359	84.599144
506.469238	998.702820	23191.585938	19804.349609	84.737282
506.820160	992.387146	23208.009766	19897.748047	85.099396
507.170929	1007.247620	23352.380859	20157.435547	85.701828
507.521729	1010.739990	23521.789063	20383.837891	86.060394
507.872498	1010.962891	23726.791016	20639.662109	86.409790
508.223236	989.340820	23965.080078	20909.677734	86.701614
508.573883	983.619446	24198.318359	21187.271484	87.029564
508.924500	992.758606	24456.146484	21434.328125	87.121132
509.275116	993.650330	24585.806641	21626.623047	87.456917
509.625702	1000.634705	24768.146484	21838.386719	87.673256
509.976196	997.513977	24966.900391	22033.507813	87.761917
510.326660	1013.117676	25212.322266	22226.767578	87.662590
510.677124	1009.699707	25414.724609	22400.935547	87.650948
511.027557	1030.950317	25584.583984	22598.875000	87.840050
511.377869	1028.349609	25753.619141	22789.685547	88.012535
511.728180	1028.423950	25832.382813	22873.572266	88.071213
512.078430	1012.820374	25876.888672	22927.369141	88.137421
512.428650	998.479980	25908.318359	22892.966797	87.894936
512.778931	1010.739929	25928.750000	22929.447266	87.963310
513.129028	1009.773987	25904.900391	22836.791016	87.675865
513.479126	1014.306396	25777.843750	22750.601563	87.775406
513.829285	998.851501	25622.179688	22624.732422	87.826797
514.179382	989.266418	25435.232422	22588.250000	88.353981
514.529297	993.055847	25363.234375	22617.078125	88.731491
514.879272	994.913391	25352.833984	22704.755859	89.128471
515.229187	1003.086731	25358.328125	22739.679688	89.248108
515.579163	990.752441	25528.630859	22983.615234	89.628220
515.928955	986.963074	25747.898438	23385.294922	90.458344
516.278748	983.545105	26243.197266	23987.146484	91.068558
516.628540	995.879395	26763.244141	24707.958984	92.023689
516.978333	1002.640869	27471.724609	25457.150391	92.388954
517.327942	995.284912	28162.884766	26372.931641	93.411438
517.677612	993.130127	28898.484375	27141.818359	93.704910
518.027222	984.139465	29540.906250	27772.130859	93.806107
518.376831	985.848450	30075.291016	28068.896484	93.102669
518.726379	986.517273	30347.236328	28118.601563	92.409470
519.075867	991.718445	30251.609375	27805.640625	91.640541
519.425293	1016.238281	30116.529297	27395.935547	90.650970
519.774658	1018.467346	29773.177734	26805.525391	89.679420
520.124084	1028.201050	29425.064453	26268.242188	88.883202
520.473389	1013.191895	28886.000000	25708.818359	88.601143
520.822693	1012.894714	28420.791016	25273.177734	88.515671
521.171997	1018.913269	28042.587891	24983.470703	88.679863
521.521240	1033.773804	27713.353516	24834.867188	89.210899
521.870361	1034.368286	27502.333984	24819.486328	89.863792
522.219482	1025.229004	27406.111328	24929.083984	90.610519
522.568604	1005.613037	27453.591797	25065.353516	90.970055
522.917664	1008.287903	27629.689453	25315.162109	91.305763
523.266724	1013.340515	27984.560547	25743.070313	91.689323
523.615662	1023.817200	28552.976563	26419.966797	92.251816
523.964600	1031.247437	29271.929688	27322.818359	93.098213
524.313538	1035.334106	30194.101563	28367.591797	93.735985
524.662354	1029.984253	31224.234375	29499.443359	94.287682
525.011169	1048.188354	32392.273438	30609.302734	94.311623
525.359985	1032.139038	33588.472656	31730.009766	94.291550
525.708740	1026.417603	34838.093750	32901.390625	94.272087
526.057434	1016.089661	36262.179688	34209.714844	94.176758
526.406067	1026.269165	37950.933594	35891.781250	94.423370
526.754700	1029.687134	39988.386719	38084.234375	95.112381
527.103333	1016.238281	42483.546875	40832.839844	96.019257
527.451782	1014.529358	45212.687500	43848.562500	96.913612
527.800293	1014.157898	47962.628906	46688.781250	97.286713
528.148743	1016.089661	50085.683594	48759.378906	97.297096
528.497131	1000.188904	51566.683594	49655.324219	96.220108
528.845642	1005.167175	52087.324219	49226.222656	94.399017
529.193909	998.331299	51922.296875	47702.125000	91.712799
529.542175	1009.625305	50947.515625	45248.949219	88.588692
529.890503	1009.179504	49310.847656	42304.027344	85.493629
530.238770	1012.374512	47035.480469	39234.359375	83.049553
530.586914	1018.838867	44790.269531	36833.046875	81.820969
530.934998	1029.092651	42612.386719	35027.785156	81.760460
531.283142	1031.544556	41152.042969	34274.953125	82.858910
531.631226	1026.417847	39924.187500	33987.402344	84.737465
531.979248	1014.083557	39587.449219	34455.808594	86.696419
532.327148	1009.996887	39665.988281	35156.554688	88.334450
532.675110	1006.950500	40039.730469	35866.441406	89.308243
533.023071	1006.727722	40295.703125	36208.753906	89.597717
533.370850	1010.517090	40429.449219	36008.437500	88.784546
533.718689	1016.238342	40400.988281	35388.453125	87.272903
534.066467	1018.913269	40013.574219	34372.441406	85.533577
534.414246	1013.860657	39126.550781	33075.632813	84.123611
534.761963	1020.473572	38154.968750	31891.843750	83.133942
535.109619	1033.773804	37366.468750	31030.302734	82.560707
535.457153	1043.433105	36677.312500	30499.187500	82.662216
535.804749	1036.077148	36101.687500	30175.748047	83.100426
536.152344	1026.194824	35585.207031	29896.146484	83.538124
536.499817	1027.532227	35115.542969	29547.443359	83.665512
536.847229	1030.355835	34740.832031	29070.271484	83.178642
537.194641	1027.903931	34328.601563	28468.416016	82.402206
537.542114	1032.510620	34084.292969	27918.281250	81.344398
537.889404	1029.538574	33726.453125	27344.812500	80.482437
538.236694	1035.779907	33508.597656	26929.015625	79.738190
538.583984	1024.783081	33514.988281	26827.962891	79.418335
538.931213	1031.619019	34040.378906	27196.578125	79.266708
539.278381	1028.646851	35143.550781	28133.240234	79.450890
539.625488	1036.745972	36835.574219	29562.601563	79.683769
539.972595	1048.708618	39148.914063	31580.068359	80.134369
540.319641	1049.451660	41812.144531	33737.671875	80.191521
540.666687	1060.597046	44521.593750	35737.601563	79.788795
541.013611	1048.114258	46912.285156	37182.644531	78.785965
541.360596	1051.829346	48464.394531	37806.339844	77.520615
541.707458	1039.272095	49598.406250	37825.734375	75.756012
542.054260	1051.755005	49859.730469	37076.535156	73.809212
542.401062	1049.526001	49854.152344	36118.777344	71.856407
542.747864	1062.380249	49037.343750	34690.750000	70.095665
543.094666	1058.442261	48003.199219	33209.527344	68.487061
543.441284	1064.535156	46571.609375	31592.849609	67.084770
543.787903	1049.748901	45407.281250	30219.958984	65.761574
544.134460	1042.690063	44538.832031	29069.826172	64.435913
544.481079	1043.210205	44140.421875	28352.134766	63.365871
544.827637	1058.590942	43941.218750	27865.898438	62.513206
545.174072	1057.996460	43890.019531	27583.548828	61.929253
545.520508	1059.185303	43827.015625	27408.935547	61.611141
545.866943	1048.114136	43647.277344	27232.093750	61.465950
546.213318	1054.578491	43225.238281	27071.750000	61.694962
546.559631	1064.015015	42554.878906	26668.658203	61.711521
546.905823	1068.101685	41401.625000	26168.677734	62.232540
547.252136	1059.705444	39895.582031	25411.828125	62.705227
547.598389	1048.039917	37882.945313	24507.564453	63.688301
547.944458	1049.823120	35919.644531	23515.697266	64.427849
548.290588	1063.940552	33873.421875	22501.166016	65.338509
548.636658	1050.120483	32114.974609	21594.970703	66.135353
548.982727	1034.442505	30315.437500	20737.666016	67.290146
549.328735	1022.702637	28804.640625	20093.462891	68.644455
549.674622	1033.773804	27447.650391	19518.357422	69.980576
550.020569	1037.934692	26403.546875	19153.310547	71.417061
550.366455	1038.380493	25452.396484	18825.560547	72.856430
550.712280	1026.937988	24681.802734	18634.455078	74.435081
551.058044	1029.315552	24185.984375	18583.111328	75.804497
551.403748	1029.166992	23768.921875	18612.607422	77.324677
551.749512	1046.479492	23520.156250	18757.722656	78.808838
552.095154	1041.426880	23236.093750	18824.371094	80.122597
552.440735	1062.603149	23088.458984	18921.929688	81.083466
552.786316	1046.182251	22923.132813	18905.064453	81.633324
553.131897	1038.751953	22684.546875	18752.150391	81.832977
553.477417	1012.448792	22367.867188	18511.408203	81.941544
553.822815	1015.495300	22043.462891	18216.054688	81.798485
554.168213	1023.297119	21691.935547	17966.472656	81.975288
554.513672	1023.371399	21306.232422	17675.875000	82.101357
554.859009	1029.018433	20851.572266	17455.865234	82.869476
555.204285	1033.922363	20454.423828	17236.896484	83.432320
555.549500	1033.402222	20104.310547	17052.845703	83.999374
555.894714	1013.266113	19831.171875	16860.773438	84.215042
556.239990	1006.430359	19525.640625	16730.298828	84.905716
556.585022	1020.845032	19316.849609	16682.669922	85.602440
556.930115	1039.272095	19064.814453	16594.474609	86.295334
557.275146	1033.922363	18881.064453	16454.931641	86.406044
557.620178	1012.671814	18663.060547	16313.756836	86.689789
557.965149	1001.674988	18505.685547	16223.924805	86.964363
558.310059	997.216797	18362.951172	16162.847656	87.330780
558.654968	996.845215	18247.187500	16128.148438	87.715958
558.999756	994.467590	18181.207031	16125.918945	88.041428
559.344604	997.588318	18196.291016	16222.586914	88.524109
559.689331	990.678162	18159.882813	16241.609375	88.827240
560.033997	1001.600586	18125.480469	16276.753906	89.203812
560.378723	998.479980	18092.638672	16307.218750	89.555382
560.723389	1005.018555	18144.873047	16377.879883	89.690727
561.067932	984.139587	18172.291016	16461.916016	90.049103
561.412476	989.415039	18185.664063	16455.675781	89.939728
561.757019	996.102295	18163.892578	16473.582031	90.154167
562.101501	999.297302	18143.533203	16457.384766	90.164925
562.445862	1005.613037	18058.087891	16439.476563	90.508057
562.790222	995.507874	17994.855469	16374.758789	90.469650
563.134644	1007.916321	18004.664063	16320.889648	90.093552
563.478943	1012.746094	18010.683594	16350.536133	90.233238
563.823181	1016.684082	18038.472656	16437.544922	90.594833
564.167358	1006.801819	18090.335938	16591.277344	91.225128
564.511536	992.758606	18241.021484	16769.529297	91.468742
564.855774	986.740173	18426.853516	17040.289063	92.049568
565.199768	992.461426	18658.974609	17358.824219	92.640594
565.543823	988.374756	18924.085938	17676.021484	93.041458
565.887817	996.325195	19198.931641	17936.826172	93.066345
566.231812	1004.349915	19353.925781	18050.134766	92.894707
566.575745	1006.430420	19409.060547	18030.744141	92.510223
566.919617	1007.990723	19386.843750	17882.361328	91.814056
567.263428	997.439758	19299.462891	17656.482422	91.022957
567.607239	992.535706	19210.744141	17432.310547	90.238152
567.950989	995.062012	19075.439453	17240.609375	89.851814
568.294678	996.696716	18965.248047	17134.357422	89.810585
568.638367	997.365417	18788.556641	17034.494141	90.140839
568.981995	981.761719	18663.058594	16929.728516	90.196815
569.325623	986.294250	18554.056641	16905.058594	90.613503
569.669128	1001.229187	18529.833984	16998.158203	91.261848
570.012573	1004.498474	18531.542969	17141.341797	92.068253
570.356140	1008.436523	18645.375000	17326.873047	92.524208
570.699524	1002.863770	18768.347656	17498.365234	92.851402
571.042908	1007.024719	18982.564453	17764.294922	93.222626
571.386230	988.449036	19157.396484	17933.705078	93.264931
571.729492	1002.417969	19369.306641	18128.750000	93.245689
572.072815	1003.235291	19469.466797	18148.216797	92.845047
572.416016	1010.442627	19502.085938	18098.507813	92.409660
572.759094	997.365417	19477.046875	17944.255859	91.705536
573.102234	987.929016	19416.490234	17777.669922	91.107170
573.445374	989.266418	19342.187500	17609.224609	90.557564
573.788391	988.374817	19229.617188	17451.255859	90.250877
574.131409	1003.235352	19150.039063	17339.730469	90.024086
574.474365	994.244629	19111.697266	17269.736328	89.833221
574.817261	992.833008	19085.841797	17157.984375	89.344742
575.160156	989.192139	19095.353516	17025.503906	88.568253
575.502930	995.507874	19061.250000	16797.841797	87.471268
575.845703	987.483215	19081.681641	16592.763672	86.244659
576.188477	1011.037170	19040.146484	16352.097656	85.090508
576.531250	1008.882324	18970.970703	16104.149414	84.039604
576.873901	1013.043396	18777.337891	15783.682617	83.147911
577.216431	975.074646	18608.669922	15445.528320	82.061844
577.559082	970.170715	18445.353516	15141.258789	81.092644
577.901611	967.570068	18308.486328	14859.057617	80.108154
578.244080	970.542175	18119.759766	14612.446289	79.548264
578.586487	989.935120	17943.810547	14353.057617	78.820457
578.928955	1552.109497	18344.080078	14789.139648	78.829521
579.271301	1586.140259	18108.539063	14581.018555	78.650070
579.613647	1572.839966	17814.298828	14367.695313	78.778976
579.955872	1017.650085	16972.748047	13522.797852	78.377129
580.298157	993.873230	16680.960938	13337.559570	78.686920
580.640320	989.786560	16463.181641	13233.909180	79.130165
580.982483	981.464661	16236.483398	13118.515625	79.561035
581.324524	989.712219	16131.417969	13041.539063	79.593590
581.666626	989.043518	16020.409180	12939.148438	79.501122
582.008728	984.956848	15948.334961	12859.273438	79.355858
582.350647	972.102478	15846.391602	12789.653320	79.449516
582.692566	985.997131	15834.653320	12764.984375	79.326958
583.034424	993.501648	15775.656250	12726.793945	79.374710
583.376343	990.306641	15721.788086	12631.463867	79.022308
583.718201	980.944519	15629.428711	12554.856445	79.010986
584.059937	974.554504	15603.125977	12445.926758	78.417580
584.401611	967.421387	15564.339844	12392.132813	78.267967
584.743347	965.489563	15535.139648	12346.362305	78.113564
585.085022	966.009766	15468.637695	12296.803711	78.129250
585.426514	977.749573	15502.743164	12280.456055	77.815567
585.768127	974.851746	15551.708008	12230.895508	77.218597
586.109619	987.557434	15652.239258	12248.133789	76.787048
586.451172	980.870300	15746.456055	12235.651367	76.223061
586.792542	984.288147	15829.897461	12266.562500	75.997383
587.133850	979.904297	15853.895508	12288.629883	76.030205
587.475220	983.173523	15850.034180	12357.062500	76.504982
587.816589	977.377930	15796.238281	12346.958008	76.723717
588.157776	984.065247	15772.909180	12347.180664	76.835724
588.498962	987.706055	15706.333008	12333.434570	77.084152
588.840210	981.984680	15631.956055	12379.578125	77.799423
589.181335	991.718323	15565.157227	12454.176758	78.653076
589.522400	996.622375	15504.898438	12502.844727	79.307991
589.863403	1001.377747	15425.914063	12491.997070	79.660233
590.204407	998.628601	15317.209961	12414.645508	79.728683
590.545410	985.179749	15284.145508	12276.815430	78.968201
590.886353	998.628601	15265.570313	12176.432617	78.347580
591.227112	974.777344	15250.485352	12072.780273	77.740471
591.567932	976.932129	15224.480469	12019.801758	77.507149
591.908752	963.780579	15252.565430	11983.838867	77.123833
592.249512	974.480225	15396.711914	12030.723633	76.661110
592.590149	962.740295	15415.362305	12013.933594	76.464973
592.930786	976.932129	15464.921875	12013.116211	76.174706
593.271423	959.248108	15421.604492	11993.277344	76.294823
593.612000	969.873535	15437.504883	12088.831055	76.854027
593.952576	956.647644	15455.262695	12192.481445	77.495911
594.292969	965.861084	15469.456055	12321.545898	78.295654
594.633484	966.083984	15500.141602	12434.559570	78.907600
594.973877	962.814636	15464.773438	12568.231445	80.026550
595.314209	971.805237	15519.682617	12759.856445	81.029358
595.654480	973.217041	15638.270508	13002.901367	82.029594
595.994812	978.046692	15822.690430	13256.125000	82.710495
596.335022	969.130371	15968.472656	13456.891602	83.255402
596.675171	971.136536	16053.624023	13538.773438	83.326019
597.015320	968.090149	16117.300781	13555.192383	83.087509
597.355408	977.452332	16067.293945	13449.088867	82.649223
597.695496	970.839355	16009.413086	13262.664063	81.735306
598.035461	971.582336	15799.953125	12933.131836	80.666649
598.375366	965.341003	15598.073242	12565.778320	79.277313
598.715271	969.799133	15335.338867	12228.667969	78.374146
599.055176	988.820618	15108.492188	11962.218750	77.717094
599.395081	976.337708	14846.796875	11729.875000	77.528343
599.734802	971.953857	14569.425781	11534.085938	77.677177
600.074524	960.511230	14315.757813	11387.859375	78.076790
600.414246	967.867188	14090.395508	11291.190430	78.668709
600.753906	983.768066	13913.780273	11288.441406	79.695778
601.093506	967.272766	13710.413086	11270.237305	80.851067
601.433044	971.285156	13644.284180	11347.734375	81.878403
601.772583	954.789978	13612.333008	11403.089844	82.546036
602.112122	981.910461	13732.257813	11603.781250	83.306519
602.451538	978.566833	13855.601563	11821.785156	84.205864
602.790894	979.904297	14011.338867	12171.750977	85.883461
603.130310	961.848633	14240.338867	12495.265625	86.857895
603.469604	971.953918	14513.252930	12860.834961	87.797195
603.808838	968.387390	14832.754883	13140.139648	87.791618
604.148010	959.173828	15115.476563	13386.750000	87.788292
604.487305	959.842529	15304.206055	13488.395508	87.341293
604.826416	971.656738	15410.905273	13494.191406	86.725677
605.165527	981.390381	15399.463867	13372.260742	85.939850
605.504456	963.334778	15340.836914	13201.140625	85.117744
605.843445	952.189270	15216.082031	12902.741211	83.781837
606.182434	951.743591	15014.200195	12610.956055	82.910210
606.521423	961.700134	14788.766602	12301.558594	82.012032
606.860229	966.826965	14570.390625	12102.799805	81.860703
607.199036	968.758850	14418.442383	11904.782227	81.310638
607.537903	966.752686	14381.440430	11832.784180	81.000999
607.876648	974.628845	14462.059570	11827.359375	80.465515
608.215271	978.566895	14731.109375	12012.594727	80.232635
608.553955	977.600891	15195.128906	12247.168945	79.265312
608.892578	980.944519	16049.312500	12635.252930	77.342873
609.231140	978.641113	17279.619141	13000.821289	73.751274
609.569641	977.972412	18917.919922	13388.534180	69.178360
609.908081	968.535950	20817.394531	13699.711914	64.140594
610.246521	977.675232	22792.806641	13969.356445	59.553535
610.584961	982.579102	24579.337891	14116.773438	55.661011
610.923340	985.848450	25870.201172	14128.215820	52.813778
611.261597	993.873230	26535.507813	13973.442383	50.817299
611.599854	1001.303528	26681.068359	13772.379883	49.732059
611.938110	1001.897888	26461.576172	13483.343750	49.024368
612.276245	989.786621	25929.791016	13208.719727	48.993309
612.614319	979.458496	25026.937500	12858.160156	49.396870
612.952393	972.028137	23804.361328	12497.049805	50.476757
613.290466	966.901306	22530.515625	12088.237305	51.574543
613.628479	970.987976	21278.070313	11755.433594	53.106819
613.966370	981.167419	20053.189453	11477.096680	55.033127
614.304260	976.932129	18841.982422	11266.000977	57.593277
614.642151	968.684570	17635.380859	11002.226563	60.201149
614.979980	955.607239	16632.515625	10791.950195	62.744148
615.317749	956.498840	15741.700195	10589.475586	65.152824
615.655396	972.399658	15049.421875	10462.343750	67.414429
615.993164	975.223145	14440.066406	10343.384766	69.574982
616.330811	989.935059	13949.221680	10253.999023	71.485909
616.668396	971.730957	13443.368164	10154.506836	73.629272
617.005859	983.545105	13019.397461	10087.411133	75.639565
617.343445	982.430664	12626.929688	10061.256836	77.966652
617.680908	978.492615	12341.534180	10052.266602	79.853394
618.018311	984.139587	12115.132813	10037.034180	81.330521
618.355652	971.508118	11909.612305	9999.733398	82.539215
618.692993	995.507813	11746.442383	9938.731445	83.185547
619.030273	974.703125	11598.358398	9897.122070	83.986336
619.367554	968.610168	11501.764648	9845.704102	84.277641
619.704712	953.526855	11434.222656	9820.590820	84.603783
620.041870	961.997375	11362.668945	9755.946289	84.551743
620.379028	954.715637	11294.385742	9691.600586	84.498680
620.716064	938.220520	11232.416992	9672.133789	84.843079
621.053040	926.777832	11188.429688	9661.211914	85.117226
621.389954	932.499207	11159.004883	9651.106445	85.254997
621.726929	932.127625	11129.359375	9618.932617	85.187874
622.063843	929.824219	11127.575195	9576.952148	84.794464
622.400635	923.434265	11133.742188	9545.819336	84.447845
622.737427	934.653870	11157.222656	9537.497070	84.155396
623.074219	937.403076	11165.172852	9543.589844	84.145294
623.410889	953.823975	11173.122070	9584.753906	84.457169
623.747559	960.808594	11226.026367	9619.601563	84.350800
624.084167	970.839417	11287.028320	9681.866211	84.440353
624.420715	967.570068	11379.461914	9764.045898	84.484894
624.757324	973.217102	11480.440430	9877.133789	84.740913
625.093750	967.198547	11590.704102	10009.617188	85.117088
625.430176	968.387390	11712.040039	10140.612305	85.373428
625.766602	979.086975	11830.554688	10266.778320	85.589264
626.102905	975.297546	11971.284180	10384.844727	85.572556
626.439209	965.861084	12081.696289	10500.014648	85.770912
626.775452	941.266907	12166.401367	10601.660156	86.060379
627.111694	944.461914	12189.659180	10645.647461	86.269592
627.447876	941.118347	12178.215820	10603.889648	85.989922
627.783997	942.455750	12126.649414	10495.555664	85.416084
628.120056	943.644531	12113.870117	10388.262695	84.551720
628.456055	957.836426	12059.554688	10262.691406	83.814552
628.792053	947.879883	12006.651367	10112.971680	82.876221
629.128052	938.369141	11869.414063	9959.090820	82.523872
629.463928	942.158508	11820.894531	9845.705078	81.843575
629.799744	946.245117	11797.934570	9747.847656	81.108131
630.135559	954.195496	11839.618164	9665.297852	80.025391
630.471375	933.390686	11812.870117	9592.109375	79.587616
630.807068	958.802246	11742.429688	9526.128906	79.447540
631.142700	971.953918	11610.914063	9413.708984	79.347557
631.478333	981.315979	11457.999023	9256.335938	78.985115
631.813965	954.121277	11261.468750	9139.606445	79.414078
632.149475	932.053284	11024.739258	9031.124023	80.246933
632.484924	931.607483	10780.582031	8996.499023	81.885597
632.820435	939.706482	10557.971680	8951.917969	83.302040
633.155884	942.158447	10360.252930	8946.046875	84.984161
633.491150	977.526550	10265.960938	8971.161133	86.060089
633.826477	978.343933	10105.541992	8925.614258	87.072403
634.161804	1000.486145	9997.208008	8888.090820	87.671982
634.497009	964.746582	9793.619141	8743.573242	88.106674
634.832153	948.325684	9620.790039	8641.628906	88.709534
635.167297	923.954346	9476.198242	8510.261719	88.705460
635.502380	912.437439	9335.245117	8413.743164	89.059441
635.837463	926.629211	9248.459961	8299.465820	88.596321
636.172424	933.836609	9125.786133	8202.723633	88.732079
636.507324	951.297791	9036.102539	8123.812988	88.715996
636.842224	954.418457	8949.317383	8056.866699	88.837250
637.177124	959.471008	8845.590820	8002.031250	89.303238
637.511963	941.415344	8753.975586	7912.571777	89.230118
637.846741	934.579590	8667.262695	7833.587402	89.218811
638.181396	915.260925	8568.143555	7707.570313	88.754913
638.516113	933.613708	8496.145508	7632.970215	88.586159
638.850769	930.641602	8404.530273	7543.063965	88.473656
639.185303	938.666199	8363.514648	7512.525391	88.538635
639.519836	933.836609	8281.484375	7459.101563	88.807533
639.854370	926.703552	8208.073242	7408.056152	89.012825
640.188843	932.350525	8129.089355	7340.217285	89.038475
640.523254	935.322693	8083.467285	7291.103027	88.915108
640.857605	958.059265	8049.140137	7266.954590	88.969444
641.191895	948.994385	8002.180176	7203.723145	88.679482
641.526184	935.842773	7914.651855	7125.259766	88.688728
641.860413	922.319641	7869.921387	7039.291016	88.044357
642.194580	922.914063	7826.008301	6983.786621	87.799362
642.528748	925.811951	7801.710938	6941.954590	87.496086
642.862793	942.604309	7762.405762	6933.409668	87.844276
643.196838	943.050110	7743.681152	6902.277344	87.627563
643.530823	944.164612	7721.910156	6875.156250	87.506851
643.864746	929.304199	7692.932129	6830.872559	87.254478
644.198669	927.892395	7639.806152	6813.633301	87.690948
644.532532	931.979065	7621.007324	6784.283691	87.491104
644.866333	931.013184	7597.230469	6768.978027	87.575378
645.200073	943.718933	7591.138184	6762.438965	87.533524
645.533813	935.619934	7547.076172	6770.984375	88.261406
645.867554	925.737610	7541.429199	6766.154297	88.281273
646.201172	920.090637	7535.856934	6756.420410	88.218498
646.534729	960.288391	7592.475098	6810.661621	88.211830
646.868225	966.381287	7595.595703	6807.689453	88.114639
647.201782	953.749756	7569.886719	6812.519531	88.552727
647.535217	913.031799	7560.004395	6755.009277	87.889297
647.868591	926.926453	7578.134277	6752.556641	87.587555
648.201965	935.768494	7617.068848	6732.123047	86.754883
648.535278	933.019287	7607.558594	6695.566406	86.336250
648.868591	915.186584	7614.914551	6674.761719	85.967300
649.201782	912.214539	7643.074707	6631.369141	84.969147
649.534912	918.381653	7685.799316	6642.737793	84.587006
649.868103	907.979248	7701.031250	6623.121582	84.132179
650.201172	909.539551	7737.662109	6664.582520	84.284409
650.534180	910.356934	7754.306152	6649.127441	83.851738
650.867188	928.189636	7767.605957	6653.660156	83.712852
651.200134	922.765442	7749.550781	6633.152344	83.646790
651.533020	916.449707	7699.099121	6626.613770	84.187813
651.865845	936.288574	7672.350098	6623.716309	84.432541
652.198608	955.904480	7636.610840	6609.523926	84.626076
652.531433	959.991150	7598.567871	6581.585938	84.680725
652.864136	938.220459	7544.326660	6541.239746	84.815765
653.196777	3431.300049	10204.067383	9244.373047	85.830101
653.529358	3540.822266	10197.677734	9260.570313	85.922668
653.861938	3539.781982	10124.489258	9196.076172	85.900467
654.194519	1035.259888	7328.254395	6385.130371	85.013115
654.526978	931.904785	7246.298340	6318.926270	85.313362
654.859375	927.743713	7184.403809	6293.291504	85.757378
655.191833	931.607422	7149.927734	6291.806152	86.200104
655.524170	923.582764	7074.511230	6230.580566	86.279625
655.856445	935.322693	7059.130371	6221.515625	86.321991
656.188660	1014.083496	7141.532715	6329.105469	86.741180
656.520874	1027.458008	7161.370605	6362.839355	86.981697
656.853088	1017.650085	7181.135254	6414.702637	87.564949
657.185181	935.768555	7120.058594	6365.142578	87.793007
657.517212	921.948181	7194.212891	6459.655762	88.288803
657.849243	931.533203	7293.332520	6576.087891	88.725761
658.181274	937.997559	7403.968750	6728.408203	89.552063
658.513123	933.242188	7488.302246	6833.844238	90.015991
658.844971	919.570496	7596.784668	6956.666504	90.413399
659.176819	914.072021	7698.728027	7044.566406	90.358215
659.508667	912.883118	7780.683594	7125.853516	90.465210
659.840393	922.022461	7832.472656	7157.654785	90.234818
660.172058	922.468262	7839.382813	7143.834473	89.944237
660.503662	937.626038	7814.193848	7078.968750	89.308258
660.835266	941.415527	7738.033691	6985.644531	88.929947
661.166931	937.626038	7648.945313	6819.206543	87.636726
661.498413	932.796387	7548.190918	6697.201660	87.136230
661.829773	932.945007	7428.712402	6542.279785	86.353691
662.161194	944.536194	7315.548828	6421.092285	85.960526
662.492615	934.728271	7178.014160	6273.973145	85.519791
662.823975	949.068665	7078.076660	6172.921875	85.231628
663.155212	941.044006	6940.171387	6091.263184	85.849472
663.486450	940.300964	6841.126465	6018.668457	86.061981
663.817627	933.465088	6719.863281	5937.232910	86.474648
664.148743	932.870667	6631.443848	5892.726074	87.036797
664.479858	938.220459	6552.682129	5853.717285	87.550636
664.810913	915.855286	6479.271484	5819.091797	88.133553
665.141907	907.384827	6411.285156	5771.538574	88.376488
665.472778	899.360107	6342.777344	5729.259766	88.729179
665.803711	937.403137	6333.043457	5739.662598	89.002586
666.134583	941.861328	6303.396973	5724.355957	89.200089
666.465454	960.288391	6309.192871	5731.488770	89.199577
666.796143	922.765442	6251.979004	5683.415527	89.331192
667.126831	931.458984	6244.920410	5708.677734	89.907845
667.457458	925.811829	6213.713379	5714.696777	90.563049
667.788147	935.619812	6194.469238	5746.126465	91.474510
668.118774	939.409241	6202.716797	5759.426270	91.577721
668.449219	943.718811	6196.178223	5788.256348	92.233696
668.779663	953.749756	6213.416504	5803.190918	92.200539
669.110107	934.133850	6170.989746	5784.317871	92.616333
669.440552	924.251648	6182.209473	5766.708496	92.097672
669.770874	895.050598	6144.611816	5724.950684	92.005783
670.101135	903.669678	6129.231934	5711.501465	92.006020
670.431396	902.629395	6078.111328	5692.405762	92.547447
670.761597	918.010071	6032.191895	5679.923340	93.111931
671.091797	920.387695	6006.037109	5659.490234	93.185791
671.421875	914.369324	5950.384766	5615.428223	93.348778
671.751892	916.301208	5940.279297	5590.388184	93.035576
672.081909	911.545715	5913.232910	5567.205566	93.081787
672.411865	919.347473	5902.310547	5559.404297	93.118423
672.741821	910.579834	5853.865234	5521.063965	93.267616
673.071716	911.099915	5807.723145	5491.862793	93.549423
673.401550	913.477722	5772.652344	5437.770020	93.108246
673.731262	915.632385	5742.856934	5421.572266	93.344322
674.060974	907.904968	5683.266113	5390.885254	93.877304
674.390625	911.991638	5650.127441	5386.724609	94.440788
674.720276	915.186707	5625.533203	5376.767578	94.718742
675.049927	924.102966	5596.183594	5393.114746	95.653564
675.379395	917.489990	5563.713379	5390.959961	96.281845
675.708923	918.455994	5540.233887	5372.384277	96.368286
676.038330	919.347656	5554.425781	5342.068359	95.418472
676.367737	921.725281	5543.502441	5315.988281	95.077347
676.697083	938.369080	5553.459473	5346.452148	95.514557
677.026428	937.700256	5555.094238	5337.387207	95.285065
677.355652	920.907898	5559.181152	5343.628906	95.352745
677.684875	933.465149	5588.232910	5351.579102	94.915886
678.013977	921.650940	5569.509277	5384.346191	96.016167
678.343079	934.505371	5603.985840	5462.884766	96.978226
678.672180	906.790344	5590.759277	5510.587402	98.288376
679.001221	903.075195	5659.786621	5597.447266	98.689445
679.330139	910.728516	5711.575684	5657.706543	98.877922
679.659058	907.607727	5788.181641	5722.201172	98.648102
679.987976	909.465332	5854.683105	5747.240723	97.827347
680.316772	903.149597	5897.257813	5769.085938	97.433540
680.645630	897.948425	5912.416016	5763.513184	97.030533
680.974304	903.223877	5921.183594	5781.939941	97.225082
681.302979	894.679016	5907.660156	5794.349121	97.739647
681.631653	899.583008	5908.552246	5803.191406	97.896553
681.960266	907.310547	5892.874512	5781.420410	97.764465
682.288757	914.889465	5876.082520	5770.794922	97.877777
682.617249	917.118469	5831.128906	5748.430176	98.317085
682.945679	917.341370	5760.318359	5722.424316	99.217545
683.274109	935.471191	5714.251465	5644.555176	98.541550
683.602478	944.907715	5633.261230	5532.729004	97.855705
683.930725	936.808777	5558.809082	5400.693848	96.579071
684.259033	909.985535	5455.231445	5278.539551	96.112602
684.587280	903.521057	5373.795410	5206.466309	96.256851
684.915344	919.719055	5328.842285	5179.865234	96.621162
685.243469	935.619873	5285.523926	5162.627441	97.174728
685.571533	937.105896	5269.548340	5166.640137	97.624710
685.899536	939.186340	5245.697266	5176.447266	98.391968
686.227539	925.811829	5232.917480	5169.017578	98.516411
686.555420	918.307312	5244.062988	5179.642578	98.510773
686.883301	908.722229	5256.472168	5160.026855	97.781715
687.211121	907.459045	5282.403320	5153.711426	97.058434
687.538940	917.935791	5310.117676	5151.630371	96.391602
687.866638	905.898743	5316.508301	5145.240234	96.116905
688.194336	910.431213	5298.749512	5141.153809	96.408745
688.521973	890.072266	5254.242188	5102.367676	96.519966
688.849609	894.827637	5199.480957	5067.667969	96.937897
689.177063	905.230042	5163.519043	5058.380371	97.530968
689.504578	915.632385	5099.395996	5029.922363	98.339447
689.832031	915.409485	5038.244629	4978.802246	98.558220
690.159485	901.960693	4965.353516	4913.936035	98.734619
690.486816	899.508728	4909.106445	4835.175293	98.156143
690.814087	932.201904	4875.596191	4812.513184	98.400284
691.141296	947.656921	4816.673828	4746.234863	98.179413
691.468506	938.368958	4734.346191	4673.938965	98.408653
691.795715	900.251770	4645.777344	4577.196777	98.168999
692.122803	898.096985	4605.059570	4538.559082	98.206062
692.449829	909.688293	4589.976563	4516.491211	98.003273
692.776855	910.654236	4581.431641	4503.934082	97.888794
693.103821	890.072266	4555.500000	4473.915527	97.774216
693.430664	873.502747	4542.794434	4464.330566	97.861610
693.757568	879.298340	4516.416504	4442.039551	97.955055
694.084351	887.545959	4492.416504	4430.522461	98.283043
694.411133	906.567566	4461.209473	4416.107910	98.731194
694.737854	903.818298	4436.318359	4392.702637	98.765305
695.064575	901.514893	4428.070801	4356.665527	97.975212
695.391174	905.527283	4423.761230	4337.272949	97.541710
695.717773	908.499451	4408.751953	4337.198730	97.955772
696.044250	910.431213	4386.460938	4351.167480	98.984665
696.370789	904.561279	4399.166504	4383.488770	99.551376
696.697205	901.366394	4435.129395	4453.110840	100.508850
697.023621	905.007141	4512.850098	4556.466309	101.208931
697.349915	918.901794	4617.468262	4686.495605	101.866325
697.676208	914.889404	4723.943848	4806.345703	102.163315
698.002380	911.025696	4848.029785	4926.864746	102.002411
698.328674	895.422058	4975.904785	5052.956543	101.888306
698.654724	897.056824	5122.280762	5185.660645	101.500038
698.980896	906.121765	5234.998535	5299.046875	101.479561
699.306946	916.152527	5282.552246	5347.492188	101.487267
699.632935	925.960449	5274.750488	5308.706543	100.780815
699.958862	921.502258	5223.778320	5214.193359	99.777214
700.284729	910.134033	5136.918457	5079.036621	98.630592
700.610596	903.892578	5051.247559	4962.827637	97.868042
700.936340	897.651184	4931.174316	4839.559082	97.728653
701.262146	891.261169	4787.770020	4700.835938	97.768921
701.587830	893.341614	4661.158691	4559.883301	97.312096
701.913513	903.075256	4539.450684	4428.145020	96.939102
702.239075	908.573730	4435.872559	4313.050293	96.517952
702.564697	909.316711	4318.696777	4194.983398	96.371384
702.890137	894.604736	4215.564453	4074.835693	95.762405
703.215698	890.295227	4136.061035	3985.597900	95.364326
703.541016	883.682312	4070.526123	3915.010498	95.120071
703.866455	889.403564	4036.718018	3873.995361	94.829796
704.191711	903.000977	4024.829834	3843.010986	94.175888
704.517029	906.493164	4009.894775	3817.970703	93.815689
704.842163	920.759277	3993.622803	3814.850342	94.182220
705.167419	914.889404	3995.554688	3814.107422	94.110130
705.492493	914.889404	4013.907471	3817.673828	93.667877
705.817566	901.366394	4029.288086	3797.166260	92.579041
706.142578	905.973083	4065.250732	3787.358398	91.203926
706.467590	915.558105	4106.711426	3780.002686	89.762047
706.792480	919.570496	4155.603027	3767.742432	88.014320
707.117371	912.808899	4163.701660	3756.968506	87.488571
707.442200	928.932617	4205.905762	3777.550049	86.928314
707.766907	932.424805	4227.453613	3784.609131	86.560226
708.091675	932.573425	4260.592285	3784.609131	85.697701
708.416321	908.796631	4240.530762	3762.392578	85.648972
708.741028	905.452942	4252.790527	3778.070313	85.817978
709.065552	913.403381	4254.722656	3811.729736	86.741974
709.390137	912.065918	4248.035156	3835.655273	87.638382
709.714600	912.214539	4246.548828	3864.113037	88.530373
710.039063	914.369324	4231.911133	3866.044922	88.971771
710.363403	937.328857	4234.140625	3878.601807	89.215675
710.687744	936.437256	4231.613770	3874.960938	89.176521
711.012085	921.948242	4257.620117	3877.784424	88.612915
711.336304	911.620178	4299.452637	3906.465576	88.400047
711.660461	906.567566	4315.204590	3917.387695	88.329147
711.984619	919.421875	4327.019043	3938.341553	88.593796
712.308716	913.477722	4317.507813	3909.363281	88.009964
712.632751	926.777832	4291.873535	3888.038330	87.999298
712.956726	942.752930	4250.933105	3874.664063	88.626099
713.280701	951.223389	4189.410156	3854.304932	89.651451
713.604553	963.706238	4130.934082	3821.834717	90.240700
713.928467	957.910645	4055.591064	3751.692627	90.189484
714.252258	949.217102	3971.554688	3682.516846	90.436615
714.575989	931.979004	3896.360596	3632.734375	91.106873
714.899719	916.078308	3827.184814	3585.031982	91.681763
715.223267	910.134033	3788.027344	3566.530518	92.303505
715.546936	914.146423	3766.627686	3559.174561	92.727272
715.870422	911.917297	3759.271729	3568.462158	93.298706
716.193970	908.276550	3737.873047	3552.190186	93.437836
716.517395	905.304382	3715.210693	3556.128174	94.338509
716.840820	897.874023	3668.622803	3527.521484	94.907463
717.164124	904.338379	3626.567139	3518.159424	96.017685
717.487488	910.134033	3588.152344	3467.633789	95.499710
717.810730	920.759338	3555.310791	3415.175781	94.680878
718.133972	909.762512	3508.574463	3338.792725	93.466949
718.457092	895.496399	3445.194092	3253.418945	92.478516
718.780212	884.202393	3385.751953	3180.453857	91.793159
719.103210	886.357117	3351.869873	3114.918701	90.389374
719.426208	881.081726	3304.985107	3067.885010	90.218254
719.749207	911.843018	3307.139893	3075.909424	90.346481
720.072083	917.638672	3261.963623	3068.925049	91.765709
720.394958	923.805664	3235.289063	3060.231689	92.426620
720.717773	890.666687	3163.884033	3001.309814	92.848274
721.040527	888.957703	3147.983398	2978.275635	92.487572
721.363281	901.812073	3137.580811	2968.170654	92.422737
721.685913	930.121399	3126.138428	2981.025391	93.391991
722.008545	929.378418	3093.519531	2970.548584	94.317795
722.331055	915.409485	3054.659424	2920.988525	93.751503
722.653503	895.273499	3032.517334	2863.106689	92.073402
722.976013	899.731689	3029.098877	2825.063721	90.418037
723.298401	903.521179	3022.857666	2824.320557	90.632111
723.620789	903.966980	3005.173828	2827.515625	91.544945
723.943115	908.276550	3001.607178	2841.187500	92.336632
724.265381	908.573669	3000.269531	2856.791016	93.140564
724.587585	909.613953	3004.802002	2866.153076	93.382507
724.909790	908.945129	3002.275635	2874.029297	93.873573
725.231873	905.081482	3003.390381	2867.862061	93.541069
725.553894	927.595215	3020.405518	2894.908203	94.003410
725.875916	1492.964478	3609.923096	3761.500977	107.160187
726.197937	1521.422363	3642.764893	3798.726563	107.352028
726.519775	1499.874634	3645.662842	3764.770264	105.550751
726.841675	929.675720	3064.318359	2898.251953	92.220413
727.163513	901.291992	3044.702881	2883.317139	92.470612
727.485291	897.131042	3058.076904	2922.400391	93.721428
727.806946	907.533447	3087.203857	2967.724854	94.518486
728.128662	907.087585	3113.952393	2981.619385	94.003571
728.450256	921.725281	3127.327148	2990.535889	93.798004
728.771790	908.722351	3122.125732	2991.798828	94.111923
729.093323	914.146301	3121.679932	3002.052979	94.580971
729.414795	902.852356	3119.154053	3007.328125	94.954391
729.736145	902.109375	3114.844482	2984.294678	94.100067
730.057495	895.347839	3108.974609	2967.427734	93.605659
730.378845	896.536621	3102.212891	2947.811768	92.999832
730.700134	903.223816	3115.438721	2951.230225	92.577187
731.021301	900.548889	3131.710938	2954.202148	92.044113
731.342468	903.743958	3146.868896	2955.316406	91.460464
731.663574	898.096985	3150.063721	2955.985107	91.381821
731.984680	918.901672	3153.927734	2963.043701	91.459427
732.305664	912.363098	3154.150391	2977.458740	92.118271
732.626648	919.198975	3162.769531	2997.743408	92.644485
732.947571	903.223877	3163.661377	3006.734131	93.057663
733.268433	908.053528	3168.639404	3013.644287	93.143585
733.589233	903.595398	3158.831299	3006.139404	93.229446
733.909973	922.022461	3149.246826	2994.697021	93.060875
734.230713	943.570313	3145.605469	2980.281982	92.492241
734.551331	941.861328	3098.720703	2926.635498	92.021492
734.871948	921.576660	3040.987305	2858.722900	91.400230
735.192505	900.400391	2976.789795	2804.407471	91.697975
735.513062	898.096985	2934.585938	2781.968018	92.505829
735.833435	906.716125	2901.372314	2761.683594	92.996849
736.153931	896.685242	2858.722656	2721.337158	92.997818
736.474304	903.446777	2839.924072	2671.777344	91.316879
736.794617	910.282654	2837.769531	2661.672119	90.863884
737.114807	935.025452	2838.512451	2675.566650	91.439613
737.434998	932.201965	2839.180908	2696.891602	92.538498
737.755188	935.248352	2839.255127	2723.417480	93.916115
738.075256	924.177246	2828.704834	2725.349365	94.573174
738.395325	918.976074	2834.649170	2744.296875	95.283524
738.715271	922.096741	2853.150391	2756.630859	95.001717
739.035278	919.124695	2867.787842	2751.281250	94.021202
739.355164	925.663269	2864.964600	2739.467041	93.528725
739.675049	913.106140	2843.268311	2713.164063	93.259415
739.994873	923.954407	2850.698242	2708.780029	92.634300
740.314636	923.731445	2837.249268	2683.665527	91.973747
740.634277	931.681824	2814.735596	2655.950684	91.567688
740.953979	911.768738	2776.469971	2640.644287	92.715958
741.273499	913.626221	2771.640381	2641.907471	93.017654
741.593140	916.746887	2761.163330	2639.083984	93.381142
741.912598	924.028625	2743.479492	2615.604492	92.971779
742.232117	921.130859	2710.711914	2602.304199	93.942284
742.551453	902.406494	2669.548096	2576.521240	94.735741
742.870850	922.022461	2652.755615	2572.954834	95.389191
743.190063	921.205078	2619.170898	2544.868164	95.624016
743.509338	922.171082	2604.904785	2517.004639	94.776352
743.828552	901.291992	2577.338623	2475.617920	93.930916
744.147705	906.344543	2566.713135	2443.593506	92.584801
744.466797	911.174316	2549.400635	2422.937500	92.280487
744.785828	929.378418	2558.985840	2418.925049	91.405243
745.104858	930.418701	2553.264404	2417.587646	91.639580
745.423706	930.121521	2541.673340	2418.850586	92.378601
745.742615	929.824219	2517.525146	2426.504150	94.267120
746.061401	948.622864	2521.834473	2443.742432	95.036140
746.380249	945.873596	2510.391846	2455.333496	96.480812
746.698975	938.369080	2487.357910	2446.714355	97.376122
747.017639	920.239075	2451.915527	2430.813477	98.622292
747.336304	915.558105	2446.565674	2423.977783	98.524635
747.654907	921.799500	2457.339600	2423.011963	97.764458
747.973389	931.087402	2481.042236	2421.748779	96.174507
748.291931	943.050232	2478.144287	2409.860107	95.551788
748.610352	933.985168	2469.896729	2385.340088	94.494690
748.928711	933.687988	2459.865967	2380.361816	94.790634
749.247070	947.433899	2478.812988	2378.355713	93.440079
749.565308	947.062439	2465.141357	2396.931396	95.506821
749.883545	938.591980	2455.556396	2402.429932	96.497841
750.201782	924.845947	2440.398682	2413.946777	98.254639
750.519836	917.415710	2441.661865	2417.810547	98.435204
750.837952	910.728516	2437.203613	2409.934814	98.213608
751.155884	905.675842	2429.550537	2411.346436	98.805405
751.473877	902.406555	2417.290283	2407.408447	99.347687
751.791809	892.747253	2399.680664	2411.569336	100.788933
752.109619	894.084656	2377.241211	2398.491943	101.432808
752.427490	899.954590	2377.612549	2375.012207	99.824020
752.745300	923.805847	2390.169678	2368.919189	98.550804
753.062988	914.592224	2396.559814	2357.996826	97.397850
753.380615	906.864563	2400.795166	2351.384033	96.692543
753.698303	907.533386	2397.971680	2343.359131	96.335808
754.015808	914.963684	2392.399170	2339.644043	96.429276
754.333374	923.062683	2379.693359	2345.142578	97.628036
754.650757	915.038025	2369.216553	2348.040283	98.543762
754.968262	916.449707	2365.055664	2377.613037	100.866859
755.285583	928.858215	2375.606445	2391.878906	101.124763
755.602905	926.777832	2370.331055	2403.172852	102.275070
755.920105	925.366028	2371.148438	2390.095947	101.310539
756.237305	908.722229	2357.996826	2381.179443	101.599602
756.554443	904.932800	2355.396240	2362.455078	100.486664
756.871582	904.412659	2353.018311	2348.263428	99.671761
757.188599	900.251770	2347.965820	2348.114502	100.010269
757.505615	907.013367	2351.904053	2352.349854	100.030853
757.822510	919.941895	2369.588135	2374.269287	100.322914
758.139465	926.034729	2390.689941	2393.439209	100.187706
758.456238	922.542542	2410.603027	2416.696045	100.409462
758.773010	907.161865	2426.281006	2432.002197	100.376610
759.089783	909.911133	2443.742188	2460.757568	101.109337
759.406433	903.372375	2438.020752	2473.017578	102.280449
759.723145	903.298157	2428.064209	2489.289795	104.015411
760.039673	904.709961	2424.125977	2499.023193	104.929344
760.356201	900.103210	2419.593750	2513.884033	106.205391
760.672668	899.731689	2433.191162	2509.500000	104.976257
760.989136	893.713074	2430.813477	2489.438232	103.813980
761.305481	900.697571	2440.101318	2482.751221	102.770546
761.621826	909.390930	2446.491455	2493.673584	103.069557
761.938049	939.706543	2475.172119	2544.645264	104.524567
762.254333	942.307129	2507.865479	2570.576904	104.005692
762.570496	935.099792	2543.307861	2603.493164	103.742386
762.886597	899.805969	2583.877197	2630.910889	102.792854
763.202637	892.672852	2685.671875	2759.380127	104.110893
763.518677	902.555176	2831.305420	2962.672607	106.810997
763.834656	908.796570	2990.164307	3179.487549	109.096100
764.150574	902.926697	3104.218994	3327.276123	110.133011
764.466370	905.304382	3149.617920	3381.442627	110.329430
764.782288	896.090820	3131.710938	3352.835938	109.890991
765.097961	914.815125	3096.863037	3290.867920	108.890953
765.413696	898.468506	3001.755615	3162.918701	107.662437
765.729309	906.344543	2908.951416	3028.207764	105.955055
766.044861	899.805969	2793.262451	2883.168701	104.748260
766.360474	897.948425	2708.259766	2768.073486	103.304054
766.675903	896.462402	2618.427979	2662.935303	102.584679
766.991394	894.381836	2530.676514	2575.926514	102.765396
767.306763	908.945129	2475.172119	2514.701172	102.523842
767.622131	902.406555	2435.048828	2473.240479	102.491882
767.937378	902.629456	2386.009033	2414.615479	101.928467
768.252625	902.629456	2354.653076	2393.290771	102.660957
768.567810	904.709961	2303.235596	2355.173096	103.713730
768.882996	913.106140	2289.564209	2361.414795	105.219963
769.197998	897.948425	2251.149658	2330.207764	105.842300
769.513062	915.781067	2244.016602	2311.929199	105.112991
769.828064	907.756348	2216.153076	2276.709717	104.628311
770.142944	914.146301	2187.695068	2245.874023	104.568253
770.457825	902.778076	2158.717041	2230.641846	105.726776
770.772705	898.765808	2132.933838	2201.664063	105.568954
771.087402	898.171387	2121.639893	2181.602295	104.901016
771.402100	897.428284	2104.253174	2156.190674	104.303650
771.716736	904.635742	2095.634033	2140.958740	103.805603
772.031372	902.332275	2076.760986	2130.036133	104.536263
772.345947	898.840088	2054.990234	2114.655518	105.160683
772.660461	894.530457	2043.473267	2099.274902	104.856773
772.974854	907.904968	2028.612915	2091.101563	105.575806
773.289246	920.610779	2033.145386	2101.206299	106.117630
773.603638	917.044189	2013.900879	2111.906250	108.935112
773.917908	908.796570	2003.721558	2100.092041	108.801552
774.232178	900.474670	1989.455444	2078.989990	108.221878
774.546265	904.487061	1995.176758	2076.463623	107.452797
774.860474	906.493164	1997.851563	2071.485596	106.747009
775.174561	907.310547	1989.826782	2077.355469	108.085670
775.488586	917.861511	1987.746460	2059.374268	106.694893
775.802551	919.496155	1982.470825	2045.999634	105.976509
776.116516	913.477722	1967.758911	2007.511108	103.770546
776.430359	900.028870	1956.242065	1975.486450	101.822014
776.744202	913.106140	1966.644531	1967.907715	100.119896
777.057922	913.403320	1963.746704	1959.288574	99.575554
777.371704	909.465332	1949.332031	1955.573364	100.600204
777.685303	883.905090	1918.199097	1949.480469	103.024429
777.998962	883.682312	1912.700562	1950.000610	103.624817
778.312500	885.539856	1908.390991	1950.595093	104.126114
778.626038	888.140442	1891.672852	1943.164917	105.131073
778.939453	909.539612	1903.189819	1973.628906	107.088928
779.252869	932.647766	1925.777954	2009.517212	108.431847
779.566223	931.384583	1930.161743	2010.483032	108.041954
779.879578	916.078186	1922.285645	1985.963257	106.328468
780.192749	902.183594	1889.741089	1960.402954	107.155212
780.505920	909.019470	1897.394165	1947.771484	105.096977
780.819031	902.109314	1884.688477	1925.034790	104.106163
781.132141	969.056091	1950.966431	1971.325562	102.073418
781.445190	969.204651	1938.706665	1974.966431	103.740044
781.758118	988.597717	1945.468140	1987.077759	104.348511
782.071045	926.480652	1874.509155	1911.363281	103.887451
782.383911	922.022461	1867.376099	1892.787476	102.688026
782.696838	899.211609	1844.416504	1874.137573	103.144402
783.009583	890.369446	1833.122437	1873.097290	104.240227
783.322266	885.911316	1816.404297	1880.750488	106.915283
783.634888	890.518066	1802.732544	1874.434692	107.860229
783.947510	886.877258	1790.621094	1871.536987	108.953407
784.260132	888.809265	1786.386108	1847.165649	106.771515
784.572571	892.375793	1786.014526	1840.403931	106.086288
784.885010	889.775146	1784.528442	1828.069702	104.866287
785.197449	899.211609	1794.113403	1831.339233	104.159767
785.509766	904.264160	1793.222046	1827.698364	103.878288
785.822083	910.059753	1789.729614	1813.283569	102.677589
786.134277	912.734680	1787.054688	1812.837891	102.948944
786.446533	909.836853	1788.540894	1805.630493	101.944862
786.758606	926.257751	1795.376587	1818.930664	102.710114
787.070740	918.678894	1784.900024	1816.850220	103.688454
787.382690	919.050354	1778.286987	1819.004883	104.738846
787.694641	899.508789	1771.079468	1826.583984	106.368332
788.006653	899.731628	1794.856445	1844.713745	105.569870
788.318481	905.007141	1829.481445	1890.335571	106.582565
788.630310	905.155762	1864.998413	1922.508667	105.991631
788.942017	897.874084	1876.515259	1942.793335	106.772453
789.253784	899.583008	1889.889648	1967.833374	107.870667
789.565430	904.709961	1883.425293	1961.071655	107.933495
789.877014	904.635559	1860.168579	1947.177124	109.105751
790.188538	904.338379	1839.512573	1898.360352	106.292709
790.500061	899.954529	1813.209351	1870.868164	106.313553
790.811462	905.229980	1809.345703	1831.710571	102.473671
791.122925	906.418762	1802.732788	1807.413696	100.522240
791.434204	899.434387	1786.980469	1762.237671	97.212227
791.745483	900.920471	1763.352173	1755.624878	99.104012
792.056702	881.081726	1727.909790	1735.637207	100.912514
792.367920	894.902039	1721.222534	1747.971558	103.237122
792.678955	889.849426	1703.612915	1733.705444	103.697945
792.990112	903.446777	1703.315552	1733.779785	103.808655
793.301086	888.809143	1694.102051	1706.659180	101.559326
793.612122	905.081360	1703.092651	1716.021362	101.620117
793.922974	904.338379	1697.668457	1698.188599	100.065567
794.233826	915.037903	1696.331055	1717.656128	102.729462
794.544556	905.898743	1695.810913	1708.591187	101.617935
794.855286	893.490234	1682.139282	1706.584839	103.099678
795.166016	902.555176	1694.993652	1712.380493	102.194092
795.476624	900.400391	1690.684082	1704.281616	101.720589
795.787292	910.951355	1709.036743	1723.674438	101.834099
796.097778	893.341553	1709.111328	1715.575562	100.792412
796.408264	888.140381	1723.600220	1731.773438	100.978287
796.718689	882.716309	1731.624878	1745.445313	101.628021
797.029053	891.706970	1744.999390	1762.832031	102.089867
797.339355	894.976257	1747.079956	1757.705078	101.246925
797.649658	899.062988	1747.377319	1745.296509	99.754715
797.959839	888.214661	1724.863403	1731.179199	100.754890
798.270020	890.072266	1726.721069	1727.761230	100.124321
798.580078	898.914307	1727.538208	1734.522827	100.842918
798.890137	898.394226	1719.662109	1725.977905	100.769028
799.200195	893.638855	1695.885376	1712.826294	102.111687
799.510071	885.093933	1672.628540	1679.835938	100.915184
799.820007	892.524231	1667.724609	1656.058960	98.495148
800.129883	888.066101	1659.922729	1642.312988	97.718521
800.439575	888.066162	1653.904297	1634.362671	97.448334
800.749329	891.112610	1648.554565	1630.796265	97.655487
801.058960	897.205383	1640.678345	1617.421509	96.871864
801.368591	891.186829	1628.715698	1605.087402	96.796288
801.678162	890.815369	1624.406250	1595.130859	96.009300
801.987671	900.549011	1621.136719	1593.719116	96.195107
802.297119	911.917297	1626.932495	1596.765503	95.780930
802.606506	895.124817	1608.059448	1594.462036	98.092758
802.915894	883.607971	1597.657227	1591.192749	99.094673
803.225159	874.245850	1578.784180	1574.251831	99.356689
803.534424	889.998047	1587.552124	1574.846191	98.178505
803.843628	891.186829	1588.666504	1565.707031	96.708221
804.152771	896.833801	1590.821289	1568.010376	96.713066
804.461792	901.366394	1587.997681	1564.740845	96.612907
804.770874	900.549011	1587.997681	1574.697388	98.065269
805.079773	893.564453	1590.598267	1584.802734	99.168541
805.388733	882.196106	1590.746948	1594.090698	100.471916
805.697571	876.623535	1587.997681	1592.901855	100.689392
806.006470	876.400574	1606.870483	1597.805664	98.759041
806.315125	870.976563	1621.359497	1601.223633	97.316589
806.623901	879.224121	1632.876465	1601.297852	95.809921
806.932495	873.131348	1619.873535	1584.951172	95.323372
807.241150	895.942200	1609.545532	1575.217651	95.189499
807.549622	907.607727	1610.362915	1577.000977	95.252693
807.858154	913.180420	1596.765503	1576.852173	97.086929
808.166565	899.360107	1579.378540	1568.901855	98.459351
808.474915	885.316895	1569.273438	1562.512085	99.011436
808.783264	901.217712	1576.555176	1565.558472	98.371674
809.091492	895.942200	1564.443848	1549.211548	97.721428
809.399719	897.353943	1555.230347	1528.927124	96.001801
809.707825	893.341614	1544.605103	1525.583374	97.079254
810.015930	890.889648	1553.744263	1523.057129	95.370461
810.323975	893.936035	1554.858887	1527.961060	95.930260
810.632080	885.539856	1542.747437	1512.877563	95.455032
810.939880	881.601807	1525.732056	1504.778687	96.747032
811.247864	880.561584	1514.883789	1490.512695	96.157928
811.555664	879.298401	1510.128418	1475.131836	94.452293
811.863464	887.620300	1505.373047	1455.738892	91.965370
812.171143	881.378845	1490.364136	1449.348999	93.265007
812.478882	889.849365	1486.574585	1455.070190	94.720451
812.786438	904.487061	1500.469116	1481.001831	96.733582
813.094055	906.493225	1507.527954	1478.401245	95.153908
813.401489	891.335510	1490.512573	1461.683105	95.188492
813.708984	875.509033	1476.172241	1439.169434	93.839676
814.016357	892.747253	1492.444336	1459.231079	94.461662
814.323730	911.768738	1497.422729	1476.395020	96.409531
814.630981	918.307312	1483.973999	1474.017212	98.239815
814.938232	913.626282	1461.831665	1457.819336	99.268097
815.245361	890.146667	1461.163086	1430.624512	94.651894
815.552490	883.682312	1464.878296	1430.252930	94.042397
815.859619	874.468750	1463.020508	1419.330566	92.576706
816.166565	878.703918	1464.358032	1427.652344	93.732529
816.473572	875.285950	1466.141235	1429.435669	93.787720
816.780457	875.508850	1467.701660	1430.550293	93.726471
817.087341	881.155945	1475.949219	1429.955933	92.267349
817.394043	882.790710	1488.283569	1437.757690	91.655411
817.700806	880.635925	1496.754028	1435.379883	90.038574
818.007507	887.248779	1494.896484	1449.348999	92.504295
818.314209	891.781250	1487.094727	1450.314819	93.821754
818.620667	890.963867	1483.156616	1470.450806	97.854446
818.927246	881.676025	1500.989380	1485.608765	97.516502
819.233704	883.830872	1537.694946	1516.964233	96.829506
819.540161	886.802979	1568.010376	1547.279785	96.956787
819.846497	897.205383	1611.700317	1597.582642	98.024101
820.152832	897.651184	1653.681274	1636.368774	97.710075
820.458984	889.329285	1711.860474	1681.321899	96.287247
820.765259	881.676086	1761.643188	1729.395874	96.335396
821.071350	890.295227	1842.187134	1808.751099	96.487411
821.377502	893.638855	1956.242065	1928.601440	97.398781
821.683472	904.561340	2170.679688	2150.766602	98.427231
821.989441	894.158936	2561.511963	2551.778320	99.416222
822.295349	900.846191	3196.874268	3180.230469	99.275108
822.601196	898.691406	3998.081055	3983.294189	99.522911
822.907043	897.205383	4748.390137	4767.634277	100.499695
823.212769	885.762695	5229.128418	5277.573730	101.115387
823.518494	892.970154	5336.867676	5391.554199	101.230598
823.824097	886.877258	5079.557129	5062.616211	99.595940
824.129700	891.112549	4620.812500	4527.413574	97.495804
824.435242	879.224060	4096.531738	3909.883545	94.198624
824.740723	880.635803	3641.427734	3419.634033	91.966301
825.046082	882.419128	3261.963867	3007.551514	89.308357
825.351501	873.948547	2948.332031	2704.024658	88.222649
825.656799	871.347961	2704.247559	2460.980225	86.727730
825.962036	867.558533	2503.853027	2301.081055	87.607857
826.267212	886.282776	2389.203857	2218.679443	88.653801
826.572449	902.703674	2330.950684	2198.097412	90.698158
826.877502	905.898743	2376.126709	2272.325928	92.939819
827.182495	910.877136	2501.103760	2429.773193	95.514442
827.487488	894.827637	2675.864014	2628.532959	97.342499
827.792419	897.502625	2816.890625	2791.553467	98.679939
828.097290	869.862000	2858.500000	2821.571533	98.143028
828.402100	876.326355	2803.441406	2764.209717	97.964226
828.706848	884.871155	2678.315918	2605.573486	95.943985
829.011597	891.335449	2495.010986	2413.946777	94.945099
829.316223	886.728516	2297.440186	2196.016846	92.810486
829.620789	889.254883	2119.782227	2016.130249	91.576622
829.925354	908.870850	1990.347046	1872.057007	89.062172
830.229797	924.771667	1882.682251	1766.101440	87.829674
830.534302	946.616638	1810.162720	1707.476440	88.108765
830.838562	929.229797	1712.900513	1632.579224	89.750633
831.142944	921.205078	1643.056030	1585.099976	91.971191
831.447144	889.180664	1560.803101	1502.698242	91.348579
831.751404	888.214661	1537.100464	1472.680054	90.072151
832.055542	894.679016	1525.657837	1444.964966	87.211479
832.359619	888.586243	1525.360718	1449.720337	88.121323
832.663635	895.793640	1545.570923	1475.800659	89.262436
832.967651	888.734863	1568.456055	1514.289551	92.031067
833.271545	879.521301	1623.068726	1577.521118	93.874283
833.575439	869.564758	1695.216675	1670.919800	97.057251
833.879211	862.951843	1821.382690	1800.429199	97.813774
834.183044	870.159180	1963.077759	1952.898438	99.068611
834.486694	869.193176	2096.674072	2056.773682	96.749405
834.790344	896.462402	2172.760010	2131.522217	96.768951
835.093933	899.583008	2162.209229	2100.760742	95.133278
835.397522	899.954590	2079.435791	2030.470337	95.848557
835.700928	877.886658	1961.220215	1898.285767	94.190674
836.004395	903.595398	1873.394531	1815.586914	94.039215
836.307739	904.115540	1786.683228	1719.885132	92.431389
836.611023	906.344543	1710.597290	1633.471069	90.410202
836.914307	877.292175	1618.833374	1535.465698	88.757515
837.217529	897.725525	1557.459473	1485.980103	89.165428
837.520691	891.186829	1499.503296	1440.804077	90.350548
837.823730	890.072266	1450.834839	1397.188477	90.433319
838.126831	870.233459	1418.215820	1351.937988	87.905113
838.429749	880.115723	1397.336914	1338.192017	88.564873
838.732727	886.059998	1378.389771	1326.377930	89.435570
839.035522	889.775146	1352.755249	1311.889038	91.173225
839.338379	882.716370	1331.653320	1294.724976	91.774269
839.641113	880.710205	1336.483032	1296.285278	91.180305
839.943848	889.106384	1357.510620	1327.195190	93.527931
840.246460	887.545959	1384.036743	1360.779907	95.315758
840.549072	886.654297	1411.603027	1396.668091	97.154976
840.851563	881.973206	1437.163208	1419.182007	96.761253
841.154053	884.945374	1447.788452	1426.760742	96.264023
841.456482	884.053772	1428.989868	1403.504028	95.323151
841.758850	887.843262	1393.993286	1365.683960	94.406929
842.061157	879.595642	1364.718140	1321.473755	91.085884
842.363403	874.988831	1339.529419	1289.969604	89.331436
842.665588	861.837219	1307.653442	1251.035034	87.300056
842.967712	864.958008	1288.111938	1238.774902	88.340637
843.269775	872.016785	1269.536255	1225.846191	89.009331
843.571777	866.889832	1240.558228	1213.363403	92.722206
843.873840	876.772156	1233.573853	1199.617432	90.483109
844.175659	883.013489	1232.161987	1187.952026	87.337776
844.477600	912.288757	1274.886108	1206.304688	81.086067
844.779297	907.979248	1259.802612	1198.725952	82.639961
845.081116	905.973083	1250.589233	1187.877563	81.802460
845.382751	897.279602	1218.193115	1167.667114	84.255569
845.684387	898.542786	1206.601929	1161.500122	85.359367
845.985962	894.158936	1178.738281	1152.286621	90.704994
846.287537	884.722473	1160.311279	1134.379639	90.590462
846.588989	886.802979	1153.698364	1132.001831	91.870773
846.890381	891.632629	1164.175171	1132.596313	88.413239
847.191711	896.165100	1170.342163	1130.590210	85.501358
847.493042	896.313721	1169.599121	1128.658203	85.018990
847.794250	905.601563	1178.589722	1141.215454	86.309196
848.095459	908.796570	1181.338989	1146.936890	87.377342
848.396606	904.041199	1178.961304	1141.512695	86.378365
848.697693	894.679016	1162.391724	1130.292969	88.010002
848.998657	887.546082	1142.627319	1125.166138	93.154655
849.299622	890.072327	1145.153442	1136.682983	96.679306
849.600464	888.734863	1141.809937	1132.001953	96.124474
849.901367	883.310791	1134.231079	1123.828735	95.854324
850.202087	883.236389	1117.364258	1106.813354	95.493530
850.502808	880.933105	1120.262085	1111.568726	96.367615
850.803467	887.546082	1127.395142	1112.163208	93.649368
851.104065	899.508728	1156.819214	1124.794556	87.554077
851.404663	903.298157	1150.057617	1122.714111	88.918961
851.705139	893.341614	1145.376465	1119.221802	89.622604
852.005615	879.892822	1125.166138	1103.395386	91.123878
852.306030	872.165344	1127.395142	1084.374023	83.144165
852.606384	886.059875	1140.100952	1084.819824	78.239296
852.906616	895.793640	1142.478638	1096.188110	81.234962
853.206909	895.867859	1129.029907	1105.252930	89.802383
853.506958	894.679016	1112.831909	1098.417114	93.392342
853.807129	885.539795	1103.989746	1083.407837	90.578201
854.107178	885.242615	1114.838013	1081.476074	85.469246
854.407166	885.688416	1122.416870	1096.262329	88.951668
854.707092	882.790588	1120.039185	1101.166382	92.045135
855.007019	886.802979	1114.317871	1107.184814	96.864799
855.306763	887.174500	1116.101196	1100.720459	93.281372
855.606567	880.858704	1109.859741	1091.655640	92.050644
855.906250	876.549133	1112.460327	1086.082886	88.818909
856.205933	874.097168	1103.023804	1087.568970	93.249001
856.505493	883.385010	1100.200439	1079.172729	90.301559
856.805054	899.583008	1100.051758	1084.819702	92.401779
857.104492	891.335449	1095.444946	1079.915649	92.391685
857.403931	882.493408	1103.766968	1086.008667	91.974503
857.703308	863.843323	1092.472900	1080.138672	94.605148
858.002563	869.416077	1095.370728	1071.073730	89.246956
858.301819	879.224060	1096.411011	1072.559692	89.018074
858.601013	885.985596	1100.794800	1077.983887	89.380852
858.900208	888.734863	1097.302612	1075.086060	89.348038
859.199219	884.573914	1095.965210	1081.476196	93.145882
859.498291	884.573914	1102.503784	1069.661987	84.930107
859.797302	892.301453	1113.277710	1083.779419	86.650925
860.096191	912.660339	1128.881226	1092.398560	83.127129
860.395020	912.957520	1126.875122	1089.946655	82.737061
860.693787	900.103210	1111.048584	1078.429688	84.536804
860.992554	868.004395	1088.237671	1049.674561	82.489883
861.291260	879.149841	1091.729858	1058.368042	84.306229
861.589844	881.081726	1091.655640	1060.002563	84.968185
861.888428	901.589172	1099.605957	1077.389526	88.780533
862.186890	904.115479	1104.807129	1078.058228	86.671638
862.485413	909.539734	1110.454102	1079.321411	84.504501
862.783813	905.230042	1095.965210	1072.857056	87.884689
863.082153	892.895813	1080.658813	1068.101685	93.312248
863.380371	886.357117	1087.940430	1077.909546	95.023949
863.678589	880.561523	1097.376831	1075.531860	89.924622
863.976746	873.279846	1085.934204	1080.658813	97.519264
864.274902	879.149841	1081.773315	1080.213013	99.229950
864.572937	882.939209	1080.584473	1078.801147	99.097717
864.870911	897.056702	1108.893799	1079.618530	86.180290
865.168884	882.642029	1096.039429	1068.993164	87.325867
865.466736	881.824707	1084.002319	1057.104858	86.696121
865.764587	867.409973	1063.123413	1046.108032	91.305969
866.062317	882.641907	1068.101563	1049.154419	89.783684
866.360107	885.316895	1080.510132	1066.466919	92.805481
866.657715	894.381836	1078.429688	1075.457520	98.385109
866.955322	886.951599	1087.494629	1075.160278	93.849525
867.252808	880.412903	1078.726929	1068.175903	94.679634
867.550293	877.515137	1085.859985	1065.129517	90.049927
867.847717	878.183899	1075.308960	1051.680664	88.013550
868.145081	880.115723	1076.943726	1055.990112	89.354355
868.442383	883.756592	1077.835327	1058.590698	90.084114
868.739624	881.898987	1080.287231	1074.788818	97.228455
869.036804	890.443848	1086.231445	1079.246948	96.432617
869.333984	878.109558	1075.977661	1076.423462	100.225304
869.631042	870.679260	1062.751831	1057.327759	97.176033
869.928101	861.317139	1053.686890	1050.937622	98.570839
870.224976	874.097168	1054.727173	1045.884888	95.104752
870.521851	929.229797	1114.020630	1105.104370	95.174942
870.818726	927.966736	1123.011353	1102.355225	89.409538
871.115479	929.006897	1147.679810	1112.906128	84.097855
871.412231	887.843201	1115.729614	1074.120117	81.741127
871.708862	892.598633	1104.361450	1075.383301	86.315750
872.005493	884.053772	1080.138672	1061.562988	90.526711
872.302063	884.276672	1061.637207	1060.671265	99.455376
872.598572	876.029053	1073.154175	1065.649536	96.192955
872.895020	879.298340	1075.606079	1064.980957	94.587517
873.191406	879.224121	1091.135498	1062.380249	86.430534
873.487671	887.397400	1085.191284	1062.900391	88.730240
873.783997	898.245605	1095.222046	1083.556519	94.077705
874.080200	888.957825	1079.692749	1082.442017	101.441406
874.376343	883.162170	1075.903320	1075.160400	99.614548
874.672424	890.146667	1080.733032	1078.801147	98.986343
874.968445	898.542786	1092.324219	1083.259399	95.322144
875.264465	899.211487	1097.153931	1087.568848	95.157639
875.560364	887.248718	1088.832031	1081.030273	96.129761
875.856201	871.570862	1075.754761	1069.364746	96.870461
876.152039	874.765930	1075.606079	1066.987183	95.708580
876.447754	868.004395	1077.835327	1062.454590	92.669937
876.743469	897.576843	1096.559692	1087.048828	95.220261
877.039063	901.886414	1085.042847	1093.958984	104.868042
877.334595	898.914307	1075.457642	1089.426392	107.912361
877.630127	875.508972	1061.265747	1071.445190	105.479988
877.925537	867.261414	1083.036499	1075.531860	96.522011
878.221008	866.221191	1082.887939	1075.903320	96.776329
878.516296	862.803223	1083.482300	1080.361450	98.585800
878.811646	854.481262	1079.618530	1068.398804	95.016495
879.106812	866.295410	1106.887695	1089.649414	92.835068
879.401978	870.679382	1117.141479	1095.370728	91.166695
879.697083	886.059998	1134.231079	1123.382935	95.628761
879.992126	883.830872	1148.422852	1139.506592	96.630188
880.287109	890.963928	1188.323364	1187.506226	99.725204
880.582031	889.329285	1237.066040	1234.614136	99.294899
880.876892	875.137390	1318.056030	1330.836060	102.885414
881.171753	861.465759	1464.209473	1504.555664	106.693756
881.466492	862.506042	1715.649902	1814.918335	111.635605
881.761230	872.016785	2039.535522	2197.428711	113.523811
882.055786	880.338623	2371.965820	2582.614014	114.122040
882.350403	872.165344	2607.430908	2840.741455	113.445236
882.644958	864.363586	2696.445557	2917.050049	112.041191
882.939453	861.911560	2630.093262	2809.682617	110.156723
883.233826	868.524475	2483.939697	2595.765381	106.922409
883.528137	870.456360	2295.805420	2345.291016	103.471825
883.822449	878.481018	2140.438232	2118.593506	98.268982
884.116577	872.313965	1977.492554	1915.301270	94.372742
884.410828	876.251953	1850.955078	1739.575317	88.572952
884.704956	879.744202	1725.977905	1607.687988	86.021599
884.999023	875.954773	1611.923218	1495.862305	84.230179
885.292969	878.481140	1497.348511	1411.231567	86.084747
885.586914	867.855774	1392.209961	1333.065063	88.720428
885.880798	881.453186	1332.842285	1287.740356	90.008194
886.174622	883.533691	1294.204712	1258.167969	91.224915
886.468384	886.951599	1268.198853	1226.515015	89.066452
886.762085	873.651428	1229.710083	1200.954956	91.924049
887.055664	863.026062	1198.577148	1176.806519	93.511978
887.349304	860.425476	1175.840454	1153.326904	92.862244
887.642822	861.094177	1166.998535	1138.837891	90.794296
887.936340	870.530701	1151.543579	1122.045410	89.502914
888.229736	871.273682	1129.847046	1114.317993	93.994331
888.523071	874.022888	1115.878296	1103.395508	94.838737
888.816284	900.771790	1127.246704	1120.782349	97.145660
889.109619	905.898743	1139.878052	1127.246582	94.601456
889.402710	911.694397	1132.224976	1120.039185	94.474327
889.695862	880.784424	1100.720459	1087.346069	93.918961
889.988892	865.923889	1073.674194	1053.612671	90.343445
890.281921	846.828125	1057.922119	1020.696472	82.365372
>>>>>End Processed Spectral Data<<<<<
