Jaz Data File
++++++++++++++++++++++++++++++++++++
Date: Fri Jun 04 13:25:44 2021
User: jaz
Dark Spectrum Present: Yes
Reference Spectrum Present: Yes
Processed Spectrum Present: Yes
Spectrometers: JAZA3586
Integration Time (usec): 30000 (JAZA3586)
Spectra Averaged: 10 (JAZA3586)
Boxcar Smoothing: 1 (JAZA3586)
Correct for Electrical Dark: No (JAZA3586)
Strobe/Lamp Enabled: Yes (JAZA3586)
Correct for Detector Non-linearity: No (JAZA3586)
Correct for Stray Light: No (JAZA3586)
Number of Pixels in Processed Spectrum: 2048
>>>>>Begin Processed Spectral Data<<<<<
W	D	R	S	P
191.335022	0.000000	0.000000	0.000000	0.000000
191.713211	311.477020	312.814453	321.285004	733.343994
192.091385	633.207764	632.910583	645.170532	-4025.426270
192.469528	961.923035	960.808533	977.155090	-1366.714111
192.847641	980.052917	975.892029	981.613220	-37.499268
193.225739	992.610046	980.275879	982.281921	83.735893
193.603790	996.250793	976.857910	979.755615	85.057892
193.981842	998.479980	981.761902	991.346924	42.666725
194.359863	1002.269348	993.427429	995.656494	74.789803
194.737854	1008.362244	1007.024719	1000.486145	588.856445
195.115829	1014.380798	1011.705872	996.696777	661.103027
195.493774	1009.105286	1009.996887	994.021790	-1691.730591
195.871704	1005.092957	1001.600769	990.158020	427.667084
196.249603	1006.578918	1002.789551	985.625671	552.948364
196.627457	1010.442688	1001.675049	988.597717	249.154541
197.005310	1014.232178	1007.322021	986.888733	395.699371
197.383133	1008.956726	999.074402	995.210632	139.097778
197.760910	1008.808105	996.473816	999.891785	72.288887
198.138687	999.743164	995.730774	1001.452148	-42.592678
198.516449	996.473816	993.798889	995.210693	47.220829
198.894180	987.260254	990.975403	991.272644	108.000786
199.271866	985.328369	985.774170	991.346863	1350.041016
199.649536	986.740173	987.557434	991.569824	590.955933
200.027191	995.879395	990.380920	996.399414	-9.457524
200.404816	1000.931885	998.331360	993.278809	294.289673
200.782410	1001.526367	1013.191895	991.867004	-82.802628
201.159988	993.650208	1033.104980	990.158020	-8.851115
201.537537	989.043457	1034.442505	992.312805	7.201358
201.915070	987.483154	1032.733521	990.678223	7.060867
202.292557	986.071350	1022.628357	989.043457	8.130061
202.670029	990.752441	1031.767578	983.545105	-17.572382
203.047485	987.037292	1032.659180	983.619385	-7.491816
203.424911	993.501709	1033.030762	981.093079	-31.391165
203.802292	994.393311	1027.532349	985.477051	-26.905609
204.179688	989.415039	1024.857544	982.802063	-18.658319
204.557037	989.935242	1026.046387	981.761902	-22.633842
204.934357	985.105469	1025.080444	985.625671	1.301321
205.311661	991.124023	1022.851379	986.442932	-14.754117
205.688934	988.449036	1025.749146	997.216797	23.505993
206.066177	986.442871	1022.702637	985.625549	-2.254074
206.443390	980.498718	1022.925598	983.322205	6.654947
206.820587	974.777405	1023.148438	964.152039	-21.966383
207.197769	975.594727	1024.040039	971.879578	-7.668748
207.574921	976.560730	1026.937866	974.034363	-5.014908
207.952042	980.944580	1025.972046	978.120911	-6.270993
208.329147	978.492676	1032.807861	976.709229	-3.283515
208.706223	988.597717	1036.448730	985.402649	-6.677117
209.083267	985.254089	1043.804565	991.792664	11.167415
209.460297	984.139465	1034.962646	990.975403	13.450432
209.837280	970.170593	1031.098999	984.288086	23.170626
210.214264	975.817566	1026.120605	985.254089	18.759350
210.591217	979.161194	1026.937988	984.956787	12.130561
210.968124	984.585388	1026.640747	977.675110	-16.431385
211.345016	982.727783	1025.823364	972.399719	-23.965483
211.721893	983.470886	1028.572632	971.582336	-26.359400
212.098724	985.774231	1025.526123	979.384216	-16.074743
212.475555	982.579285	1022.702637	974.851746	-19.259455
212.852356	983.768066	1024.411621	971.656677	-29.799040
213.229126	973.960144	1024.040039	962.963196	-21.958809
213.605865	967.867249	1021.365051	968.907471	1.944420
213.982590	961.254333	1026.714966	970.913635	14.755895
214.359283	966.975647	1027.458008	976.560730	15.847733
214.735931	972.696960	1023.297058	972.548340	-0.293716
215.112579	980.870300	1020.101990	967.421448	-34.280586
215.489197	983.322205	1018.170105	960.808533	-64.605530
215.865799	985.402649	1020.919373	970.393555	-42.259232
216.242355	981.241699	1023.594238	976.189148	-11.929749
216.618896	989.712341	1033.402222	984.511047	-11.905031
216.995407	986.963074	1032.213379	978.715393	-18.226795
217.371902	984.065247	1022.182617	975.297546	-23.001850
217.748367	973.811523	1014.009216	972.028259	-4.436235
218.124802	970.096375	1014.380676	964.969482	-11.577223
218.501236	968.461670	1019.656250	967.495789	-1.886687
218.877609	970.616455	1020.027832	967.124207	-7.067701
219.253983	970.616455	1025.080444	968.313049	-4.229227
219.630295	977.303711	1029.390015	968.684570	-16.547806
220.006592	975.148926	1033.030762	968.684570	-11.168194
220.382889	981.464661	1030.132935	970.096375	-23.358721
220.759140	980.052917	1032.659180	971.062256	-17.090477
221.135391	981.464600	1044.770630	968.610291	-20.305031
221.511581	978.269531	1045.067749	972.771240	-8.231194
221.887772	975.446106	1039.049316	974.554504	-1.401819
222.263931	975.297424	1031.470337	977.972473	4.762168
222.640060	974.182922	1034.219604	975.743347	2.599119
223.016159	972.696960	1033.179321	973.588562	1.474151
223.392212	977.452332	1025.749023	978.863953	2.922811
223.768265	981.539001	1031.693359	984.065186	5.036819
224.144302	989.489258	1034.888306	983.693787	-12.765623
224.520294	982.727722	1045.067749	978.715393	-6.436201
224.896286	981.687500	1049.674561	968.313049	-19.672052
225.272217	967.718567	1049.377319	966.678406	-1.273790
225.648148	967.049866	1046.702271	968.238770	1.492615
226.024048	962.740295	1049.600220	974.405945	13.430416
226.399902	971.210876	1062.603149	976.560608	5.853593
226.775772	978.715515	1067.432861	970.690735	-9.045334
227.151581	985.031189	1067.804443	981.316101	-4.488271
227.527374	986.963074	1075.383301	981.761902	-5.882333
227.903137	980.870300	1083.482300	986.963074	5.937681
228.278870	976.263428	1092.993042	980.127197	3.310017
228.654572	967.495789	1100.646118	980.201477	9.542363
229.030273	966.455505	1118.850464	982.356262	10.433912
229.405930	962.814697	1131.407471	980.201477	10.312885
229.781555	968.387390	1125.983521	981.687561	8.439402
230.157181	976.189148	1126.280640	982.802063	4.405923
230.532761	983.470886	1120.039185	984.882568	1.033682
230.908325	981.390320	1126.429321	984.436707	2.100391
231.283859	975.074646	1116.546997	988.003235	9.138597
231.659332	970.839355	1116.992798	989.415039	12.709713
232.034821	967.495667	1112.906128	983.768066	11.190666
232.410263	968.238770	1119.816284	976.263489	5.294136
232.785690	966.604065	1116.621338	968.164490	1.040163
233.161087	967.718689	1106.590454	980.127197	8.935227
233.536469	973.439941	1103.915649	982.950684	7.289282
233.911804	971.953918	1105.698853	982.133301	7.611042
234.287140	975.520508	1118.850342	971.953857	-2.488421
234.662430	964.969421	1115.581055	973.811462	5.870756
235.037704	974.108704	1126.949341	979.161194	3.305724
235.412933	977.749512	1133.710938	982.207703	2.858521
235.788162	982.579285	1146.639648	979.161316	-2.083360
236.163345	979.830078	1142.552856	984.436768	2.831005
236.538513	978.715393	1139.209351	983.916687	3.240803
236.913635	976.040527	1136.757324	981.241699	3.236234
237.288742	974.182922	1135.494019	973.216980	-0.598807
237.663834	973.291321	1140.843872	974.257263	0.576501
238.038879	970.690735	1144.336060	977.675110	4.022207
238.413910	974.183044	1151.915039	982.950684	4.933067
238.788910	972.473938	1156.224609	981.984802	5.175961
239.163879	979.607117	1156.670532	981.316101	0.965182
239.538834	975.594727	1161.945923	975.446106	-0.079753
239.913757	976.634949	1177.995483	977.080811	0.221425
240.288651	977.526611	1202.143677	976.337708	-0.529303
240.663528	981.910461	1231.418945	980.498718	-0.565810
241.038361	982.504883	1261.140015	977.823792	-1.680008
241.413177	973.662781	1291.529907	980.350098	2.103809
241.787979	970.319275	1328.755615	989.414978	5.327502
242.162735	968.907532	1368.581909	1000.486145	7.901085
242.537476	972.325439	1401.869507	1004.275574	7.438150
242.912170	973.885742	1423.194214	998.925781	5.573017
243.286865	971.879639	1427.800903	994.616211	4.986951
243.661514	971.953918	1417.918823	990.752441	4.215247
244.036148	967.644348	1389.460938	989.935120	5.284470
244.410751	977.675110	1368.433105	987.631775	2.548039
244.785339	986.145691	1359.665527	986.814453	0.179043
245.159882	993.724548	1374.005859	990.752441	-0.781555
245.534378	985.476990	1403.949829	998.034180	3.000718
245.908890	980.721619	1468.964722	1007.024719	5.387296
246.283356	972.919861	1549.954712	1009.996887	6.425440
246.657791	972.102539	1637.111816	1005.390137	5.005584
247.032196	970.393555	1702.275391	1007.470520	5.065977
247.406586	970.913574	1749.011719	1005.092957	4.392683
247.780960	971.507996	1759.785645	1009.253906	4.788403
248.155289	974.703125	1744.479370	1007.842102	4.305014
248.529602	971.582336	1691.873047	999.668762	3.899318
248.903870	975.371826	1628.195435	998.851501	3.596634
249.278122	971.359436	1558.722534	1001.377747	5.110691
249.652344	966.232605	1513.769409	1007.470520	7.531533
250.026550	965.043762	1483.899780	1006.727539	8.033785
250.400711	967.272766	1475.651978	1002.715271	6.971667
250.774857	981.687500	1483.825317	1000.114685	3.669746
251.148987	989.117859	1504.481445	997.216858	1.571512
251.523071	988.449036	1533.162476	988.969238	0.095500
251.897125	988.077576	1547.948608	993.650330	0.995364
252.271164	980.795959	1562.660522	990.826843	1.723921
252.645187	985.105469	1557.310669	993.055908	1.389439
253.019165	978.121094	1539.701172	985.254089	1.270165
253.393112	981.018799	1521.273926	986.814453	1.072762
253.767044	980.350098	1500.023438	980.127136	-0.042904
254.140930	986.814453	1492.964478	986.071472	-0.146791
254.514801	988.820740	1475.800659	990.603821	0.366151
254.888657	984.882629	1478.029663	999.222961	2.907922
255.262466	981.761902	1480.258789	1000.337585	3.726339
255.636276	985.625671	1499.726074	1006.430359	4.046814
256.010010	990.306641	1524.840454	1006.727539	3.072004
256.383759	994.616211	1549.286133	1011.928711	3.121226
256.757446	987.111633	1576.035156	1007.767822	3.507448
257.131134	983.247864	1614.375122	1007.470703	3.838028
257.504791	974.554504	1676.120728	1000.188965	3.653890
257.878418	977.006409	1749.011719	1006.653320	3.840247
258.252014	980.647278	1824.280396	1010.368408	3.522992
258.625580	985.179871	1940.044067	1022.702637	3.929644
258.999115	982.356384	2078.841553	1017.055664	3.164592
259.372650	984.511169	2245.354004	1027.903809	3.441558
259.746124	984.956970	2378.281494	1030.801636	3.290308
260.119598	984.213928	2463.803955	1042.764282	3.957201
260.493042	979.161316	2470.714111	1039.197876	4.025105
260.866425	973.514343	2407.705322	1040.906738	4.698984
261.239838	974.851746	2301.749756	1034.442383	4.490973
261.613159	969.947754	2179.818848	1031.693237	5.103476
261.986511	973.217041	2069.776367	1018.764587	4.153678
262.359802	972.845520	1987.671875	1019.656250	4.612684
262.733063	979.384094	1954.087280	1019.284729	4.093619
263.106293	977.898132	1944.353638	1021.662415	4.528329
263.479523	983.470764	1934.694336	1016.609863	3.483839
263.852692	981.316101	1917.233276	1016.609863	3.771035
264.225861	974.777344	1897.617188	1017.129944	4.589377
264.598969	968.461609	1901.183594	1019.433350	5.464838
264.972076	971.730957	1923.623169	1020.473572	5.120602
265.345154	979.978577	1972.217163	1015.495300	3.579454
265.718201	979.012634	2028.315796	1019.061829	3.816742
266.091217	972.473938	2087.237549	1025.972046	4.799054
266.464203	980.052917	2144.302002	1037.786133	4.958838
266.837158	981.613281	2194.679443	1040.832520	4.881782
267.210114	984.436768	2234.059814	1036.671509	4.180040
267.583038	979.532715	2244.759521	1034.368164	4.334041
267.955902	974.034363	2246.096924	1025.526245	4.047905
268.328766	978.046692	2255.384766	1025.526123	3.717061
268.701569	977.452332	2269.948242	1025.303223	3.702209
269.074371	976.412109	2285.031494	1033.996704	4.400408
269.447144	973.588562	2310.443115	1033.550903	4.485331
269.819885	973.365662	2391.507080	1034.070923	4.280622
270.192596	975.891907	2503.258545	1034.293823	3.823700
270.565277	975.000244	2650.526611	1043.804565	4.106430
270.937927	971.508118	2775.503906	1053.092407	4.522421
271.310577	973.885803	2887.404053	1058.293579	4.411130
271.683136	973.365723	2952.567383	1059.630981	4.358589
272.055725	968.535950	2978.127686	1063.866333	4.743769
272.428284	965.935364	2954.721924	1065.129517	4.987672
272.800812	968.090149	2906.573975	1068.696045	5.189927
273.173279	971.433777	2817.039063	1059.556763	4.774747
273.545776	970.244934	2764.878662	1053.018188	4.612264
273.918152	972.994141	2715.021484	1044.176147	4.086159
274.290558	975.148926	2716.507568	1046.256714	4.083466
274.662964	984.733887	2715.021729	1057.773560	4.221244
275.035278	980.052917	2730.922607	1056.659058	4.375319
275.407593	978.789734	2767.627686	1055.470215	4.286609
275.779907	973.291321	2817.113281	1050.788940	4.203096
276.152161	974.925964	2869.645264	1060.671265	4.525488
276.524384	980.572998	2921.136963	1067.135620	4.460694
276.896606	983.768066	2960.294922	1069.810669	4.353222
277.268799	974.480164	2977.904541	1069.141846	4.724994
277.640930	967.198486	2981.025391	1073.599976	5.283547
278.013031	957.539124	2983.328369	1072.708374	5.685154
278.385162	963.929199	2989.198486	1067.581421	5.117948
278.757233	966.009583	2986.821045	1063.123413	4.805685
279.129272	969.056091	3013.867188	1061.265747	4.509446
279.501282	968.684570	3054.733398	1060.299805	4.391807
279.873230	974.182922	3131.413818	1059.631104	3.961012
280.245178	977.377991	3228.750244	1060.002563	3.669965
280.617126	977.452332	3361.603516	1073.154175	4.014085
280.988983	973.960022	3487.175049	1078.355347	4.153855
281.360870	975.074524	3596.474609	1086.974487	4.268710
281.732697	977.452332	3668.622314	1088.683472	4.133189
282.104492	972.102539	3716.176514	1094.404785	4.456959
282.476288	966.678467	3728.436279	1101.983643	4.899241
282.848053	966.604187	3722.343506	1103.172485	4.955777
283.219757	976.114807	3725.612549	1099.234497	4.477897
283.591461	981.018799	3703.024414	1094.627808	4.173724
283.963135	977.898132	3719.965820	1092.547241	4.181119
284.334747	969.724792	3770.863037	1100.943481	4.684477
284.706360	972.473938	3865.301758	1101.835083	4.471788
285.077942	975.371765	3956.099609	1105.104370	4.352380
285.449524	980.572998	4051.653076	1098.862915	3.851737
285.821014	978.195251	4086.278076	1099.531616	3.903898
286.192535	979.978516	4123.354980	1102.800903	3.907339
286.563995	983.693665	4116.593262	1105.847412	3.899064
286.935425	981.687500	4096.902832	1107.333496	4.033300
287.306824	982.950684	4027.132813	1101.909302	3.907737
287.678223	970.319275	3951.121826	1100.794800	4.377194
288.049561	970.467834	3905.128174	1104.881470	4.580211
288.420898	959.248230	3879.494141	1110.751343	5.188026
288.792145	966.678467	3912.632813	1109.785400	4.857744
289.163452	963.260559	4010.340820	1102.726563	4.577037
289.534668	970.690735	4155.379395	1095.222046	3.910313
289.905914	970.839355	4269.434082	1110.082642	4.221291
290.277039	976.857910	4380.517090	1123.457153	4.307107
290.648193	977.749512	4434.832031	1136.088501	4.580133
291.019318	972.622559	4435.872559	1132.596313	4.619180
291.390381	971.508057	4373.086426	1123.457153	4.467017
291.761475	973.142761	4291.354004	1116.398315	4.317253
292.132507	974.480164	4249.447266	1109.265259	4.115617
292.503510	977.006531	4236.146484	1108.447876	4.033007
292.874481	972.771240	4280.579590	1109.859741	4.144391
293.245422	985.254089	4358.374512	1114.243530	3.824039
293.616364	985.328430	4495.017090	1119.890625	3.834021
293.987213	984.808289	4636.563965	1122.639771	3.774390
294.358093	977.303711	4781.529297	1120.930786	3.775462
294.728943	971.433777	4901.824707	1130.070190	4.036149
295.099731	973.811523	5032.672363	1132.150513	3.901070
295.470490	983.842346	5141.971191	1149.463135	3.983060
295.841248	992.312805	5262.193359	1151.023438	3.716981
296.211975	992.015625	5379.962891	1158.825195	3.801540
296.582642	980.647278	5501.968262	1156.818970	3.896465
296.953308	974.405945	5553.014160	1162.094482	4.099248
297.323883	969.724792	5538.302246	1161.054321	4.187945
297.694519	975.223145	5427.739746	1156.818970	4.078498
298.065063	974.703125	5306.774902	1140.843872	3.835134
298.435608	983.322266	5130.156738	1136.980347	3.705431
298.806122	977.898132	4940.016113	1133.339478	3.923188
299.176575	978.715393	4739.770996	1128.063965	3.970922
299.547028	970.839355	4614.124512	1123.085571	4.178817
299.917450	969.650574	4554.459473	1128.212524	4.423163
300.287872	976.189148	4560.106934	1135.791382	4.453290
300.658234	977.006409	4548.589844	1133.339355	4.377132
301.028564	981.464661	4541.605469	1117.290039	3.815169
301.398865	977.006531	4489.296387	1115.581055	3.945418
301.769135	978.343994	4446.274902	1116.101196	3.972317
302.139374	972.251160	4400.281250	1124.423218	4.439053
302.509583	971.136658	4376.132813	1119.816406	4.366518
302.879791	975.074646	4318.919922	1119.816284	4.328598
303.249939	973.365662	4257.396973	1106.144653	4.043171
303.620087	971.507996	4186.363770	1103.543945	4.107057
303.990173	973.662842	4170.908691	1094.033203	3.764814
304.360260	981.316101	4175.887207	1097.376953	3.633065
304.730286	977.675232	4167.937012	1091.358398	3.563443
305.100281	972.176819	4154.265137	1096.113770	3.894830
305.470276	972.251038	4153.521973	1090.615356	3.720661
305.840179	972.548340	4181.979980	1098.194336	3.914899
306.210144	974.108704	4228.122559	1103.766968	3.984564
306.579987	970.765076	4262.004395	1116.324097	4.422620
306.949890	980.647278	4321.223145	1121.376831	4.212733
307.319702	980.127136	4391.662598	1122.714233	4.179558
307.689484	984.288086	4503.785645	1123.011353	3.941565
308.059265	977.600830	4619.623047	1127.172241	4.106823
308.429016	975.669006	4733.603027	1131.407349	4.144254
308.798737	974.405823	4803.150879	1125.909058	3.956995
309.168396	978.269592	4843.868652	1131.927612	3.975012
309.538055	982.207703	4866.456543	1131.704712	3.848801
309.907684	982.430603	4867.719727	1143.593140	4.148019
310.277313	979.532776	4884.140625	1132.522095	3.918174
310.646851	977.823914	4860.363770	1137.648926	4.116507
311.016388	977.675293	4862.593262	1131.704712	3.964805
311.385895	981.687561	4804.117188	1137.648926	4.080163
311.755371	977.898132	4762.729980	1122.937012	3.832109
312.124817	976.560730	4695.708984	1119.593384	3.845845
312.494232	976.114929	4626.236328	1113.426270	3.761829
312.863617	979.235657	4609.146484	1117.364380	3.805292
313.232971	977.303711	4625.047363	1123.382935	4.004646
313.602295	978.195313	4715.622070	1129.698608	4.053679
313.971619	985.476990	4784.277832	1126.949341	3.724132
314.340820	985.922852	4829.603027	1129.327026	3.730908
314.710083	980.275818	4819.869141	1126.949463	3.820031
315.079285	973.960022	4747.126465	1131.333252	4.170853
315.448486	976.634949	4665.021973	1119.296265	3.867851
315.817596	984.362366	4544.279785	1118.998901	3.782013
316.186707	988.671936	4444.565918	1111.791626	3.562600
316.555786	988.226135	4334.746094	1123.531494	4.043166
316.924866	983.545105	4269.657715	1113.351929	3.950164
317.293884	972.845520	4267.056641	1122.416870	4.540430
317.662872	974.628845	4275.081543	1115.135254	4.257186
318.031830	971.136536	4332.442871	1121.079468	4.460853
318.400757	978.343933	4352.059082	1113.649292	4.010574
318.769684	968.015930	4399.761719	1108.448120	4.092150
319.138550	968.090149	4392.405273	1102.875366	3.936122
319.507416	968.907471	4370.188477	1104.732910	3.993361
319.876190	972.028137	4303.241699	1104.881470	3.988136
320.244995	973.885742	4228.939453	1109.042358	4.152208
320.613770	980.572998	4190.970215	1108.893799	3.997038
320.982483	980.275696	4206.425293	1109.413940	4.002860
321.351166	984.362488	4251.081543	1110.156982	3.850790
321.719818	970.839355	4306.288574	1108.671021	4.132327
322.088440	969.353333	4420.640625	1114.540894	4.206765
322.457062	968.238770	4586.707031	1115.209473	4.061683
322.825623	970.913635	4768.525879	1121.228027	3.958129
323.194183	966.678406	4897.367188	1129.327026	4.137917
323.562653	963.854980	4969.737793	1134.008179	4.247583
323.931183	964.746582	4990.616699	1129.475708	4.091764
324.299591	970.467773	4958.592285	1128.509644	3.962812
324.668060	970.244934	4902.345215	1124.571655	3.924791
325.036407	970.616455	4827.001953	1131.110352	4.161770
325.404755	980.275818	4755.151367	1124.200195	3.812692
325.773102	977.452332	4688.056152	1123.308594	3.930796
326.141388	972.919861	4599.338379	1125.240356	4.200301
326.509674	967.867249	4493.753906	1125.240356	4.463363
326.877899	979.978577	4401.841309	1123.308472	4.188651
327.246124	983.693787	4342.102051	1110.900024	3.787694
327.614288	987.483154	4305.173828	1105.030029	3.543033
327.982422	975.891907	4306.362793	1115.803955	4.200969
328.350525	976.412109	4326.275879	1120.930786	4.314166
328.718628	971.062256	4389.358887	1127.841064	4.586460
329.086700	977.452332	4430.819824	1115.952637	4.010587
329.454712	977.006409	4476.293457	1120.113403	4.089604
329.822693	975.668945	4505.494141	1117.067139	4.005813
330.190674	971.656677	4544.800293	1122.862671	4.231736
330.558563	981.316101	4600.229980	1117.884399	3.773737
330.926483	979.607117	4677.059082	1119.593384	3.786020
331.294312	985.625549	4768.748535	1120.410767	3.562803
331.662231	983.545105	4882.580078	1131.704712	3.799905
332.029999	988.597656	4976.424805	1136.905884	3.719023
332.397766	981.018799	5057.414551	1144.856323	4.019176
332.765503	980.721619	5101.773438	1148.571411	4.072984
333.133240	982.430603	5137.290527	1151.097778	4.059515
333.500916	984.213867	5136.175293	1150.354858	4.001506
333.868561	982.727844	5124.212891	1145.599365	3.932684
334.236176	978.938293	5090.107910	1140.992554	3.941804
334.603790	981.836182	5076.956543	1140.992676	3.886491
334.971344	978.046692	5031.780273	1138.986450	3.970161
335.338867	980.498718	4993.588867	1140.323853	3.982595
335.706360	978.789734	4964.982422	1139.432251	4.029974
336.073853	979.681335	4981.477539	1138.689209	3.973413
336.441284	985.031250	5023.532715	1138.243408	3.793787
336.808655	984.734070	5055.705566	1137.128906	3.743451
337.176086	986.665833	5119.383301	1137.203247	3.642577
337.543396	979.235535	5135.357910	1132.522095	3.688211
337.910706	976.932129	5169.537598	1132.076294	3.700424
338.277954	975.223206	5147.543457	1135.271118	3.835945
338.645264	977.452332	5124.361328	1136.757324	3.841536
339.012421	982.207703	5049.835938	1132.224976	3.688077
339.379669	983.396484	4949.750488	1132.076416	3.748529
339.746796	983.842285	4851.150879	1136.683105	3.952124
340.113953	979.235535	4796.018066	1134.008179	4.055056
340.481018	978.715515	4781.826172	1129.475586	3.964125
340.848114	974.925964	4805.008301	1127.989624	3.996354
341.215118	975.223206	4854.939941	1140.472534	4.259314
341.582153	972.399719	4973.749512	1139.729370	4.181830
341.949066	972.325378	5146.132324	1136.682983	3.937834
342.316010	971.879639	5388.210449	1134.379639	3.679525
342.682922	975.966248	5639.725098	1145.005005	3.624518
343.049835	972.622620	5949.790527	1156.001831	3.684409
343.416656	975.446106	6243.954590	1161.648804	3.534258
343.783478	973.439941	6487.072754	1170.416504	3.572537
344.150269	974.925964	6637.982422	1186.837402	3.741997
344.516998	974.703125	6655.740723	1195.307983	3.883179
344.883728	977.972412	6579.505859	1195.084961	3.875949
345.250427	980.795898	6442.268066	1183.939575	3.719577
345.617065	977.898132	6287.718750	1180.818848	3.821611
345.983704	972.994141	6135.770996	1173.982910	3.893036
346.350281	976.932190	6004.403809	1168.261719	3.805681
346.716827	979.161316	5861.667969	1164.174927	3.789316
347.083405	977.229492	5765.074219	1155.927368	3.732324
347.449860	979.309875	5685.941406	1158.230835	3.801465
347.816376	981.687561	5673.830078	1149.908936	3.585172
348.182770	990.678162	5679.923340	1156.893311	3.544604
348.549194	983.842285	5718.040527	1157.785034	3.674176
348.915558	979.978577	5791.525391	1162.614746	3.795789
349.281921	975.000305	5888.490723	1164.695190	3.860695
349.648193	971.582336	5948.527344	1169.524780	3.977188
350.014526	975.223145	5981.369141	1170.342163	3.897589
350.380737	977.155090	5997.195313	1174.651611	3.934162
350.746948	984.585266	6033.455078	1182.973511	3.929360
351.113159	982.281921	6082.197754	1184.534058	3.965793
351.479309	979.384094	6148.476074	1182.825073	3.935720
351.845428	973.960022	6269.736816	1181.933472	3.927157
352.211517	975.446106	6397.092285	1188.397705	3.927804
352.577576	973.588562	6552.757324	1197.982788	4.022001
352.943604	978.938293	6690.588379	1192.707397	3.742686
353.309601	979.607117	6859.998535	1197.834106	3.711096
353.675537	982.727844	7004.145996	1196.496704	3.550142
354.041473	978.641113	7154.906250	1207.344849	3.702945
354.407379	980.127258	7248.007324	1206.750366	3.615626
354.773254	975.074707	7394.012207	1216.781250	3.765523
355.139038	979.532776	7526.716797	1225.177612	3.751916
355.504913	975.594727	7806.095215	1234.836914	3.795362
355.870636	981.761780	8082.798340	1241.004028	3.650766
356.236389	978.938293	8417.161133	1247.765625	3.614134
356.602081	975.743347	8690.149414	1261.808716	3.708197
356.967804	975.891907	8881.702148	1269.239136	3.710527
357.333405	975.891907	8974.431641	1271.319580	3.693520
357.699036	978.938293	8982.009766	1272.656982	3.670075
358.064606	973.514221	8928.511719	1272.656982	3.760438
358.430176	975.520447	8851.534180	1268.421753	3.718903
358.795654	972.176758	8866.098633	1271.914063	3.797065
359.161163	974.108643	9046.059570	1280.533081	3.796163
359.526581	977.972412	9417.052734	1298.068481	3.793021
359.892029	977.675232	9960.354492	1316.124146	3.767795
360.257416	979.458496	10560.051758	1335.517090	3.716456
360.622772	968.090149	11085.223633	1354.835815	3.822680
360.988098	968.833191	11373.741211	1361.077271	3.769799
361.353394	969.130371	11472.266602	1362.860474	3.748691
361.718658	977.229492	11304.788086	1356.024658	3.667809
362.083893	983.916687	10906.375977	1339.603760	3.584666
362.449097	980.944519	10282.456055	1322.885620	3.676188
362.814209	977.898132	9626.734375	1305.721802	3.790379
363.179382	983.024963	9000.065430	1287.963501	3.803630
363.544434	984.362366	8559.599609	1270.279297	3.774363
363.909546	986.145691	8249.385742	1257.424927	3.734962
364.274536	978.343933	8095.207031	1249.102905	3.804471
364.639587	969.501892	7952.025879	1249.251587	4.006427
365.004517	964.077820	7853.500488	1244.570557	4.071353
365.369507	963.632019	7777.711426	1240.112427	4.057487
365.734344	976.932190	7762.777344	1232.459106	3.765587
366.099274	988.820618	7762.702637	1226.291992	3.505691
366.464081	992.238525	7738.703125	1225.920532	3.463770
366.828918	987.631775	7698.281250	1223.617188	3.516581
367.193665	979.086914	7606.518066	1226.366333	3.731150
367.558411	971.582336	7531.546875	1233.573730	3.993793
367.923126	970.764954	7431.312500	1231.641968	4.038002
368.287781	970.913635	7399.436035	1222.799927	3.918261
368.652435	972.251160	7346.755859	1216.187012	3.826742
369.017059	966.678406	7360.427246	1213.289185	3.857061
369.381653	965.563782	7389.256348	1217.598755	3.923522
369.746185	971.062256	7480.946777	1215.963989	3.761998
370.110687	975.000305	7574.048340	1216.929932	3.666129
370.475220	974.331543	7666.852051	1218.490234	3.648232
370.839661	965.712463	7717.898438	1226.366455	3.860291
371.204041	972.474060	7763.222656	1230.155884	3.794601
371.568451	974.554443	7759.655762	1230.527222	3.772571
371.932770	976.857849	7723.544922	1218.861694	3.587003
372.297150	972.548279	7677.849121	1217.227173	3.649037
372.661377	973.365540	7689.886719	1216.781372	3.624136
373.025696	982.281982	7743.458496	1225.920532	3.603493
373.389862	992.535828	7805.649902	1232.087769	3.516042
373.754059	996.028015	7909.450684	1230.007202	3.384419
374.118225	991.718323	8017.486816	1233.127930	3.436060
374.482361	980.795898	8179.169434	1242.118530	3.630301
374.846436	976.263367	8382.536133	1262.254639	3.861474
375.210510	978.046692	8691.634766	1274.514648	3.843451
375.574524	980.350098	9024.584961	1279.567139	3.719646
375.938538	978.046692	9329.078125	1287.443237	3.704890
376.302460	977.898132	9582.375977	1296.656738	3.704567
376.666412	968.313049	9752.158203	1303.938599	3.820941
377.030304	972.028137	9788.121094	1306.762085	3.796851
377.394196	966.529724	9666.709961	1296.285278	3.790215
377.757996	977.749451	9417.052734	1287.443359	3.669662
378.121796	978.046692	9087.296875	1271.913940	3.623852
378.485565	981.167419	8788.154297	1269.239014	3.689920
378.849304	975.520325	8563.090820	1259.059570	3.736891
379.212982	975.743347	8443.983398	1258.093628	3.780680
379.576630	977.600891	8360.170898	1252.818237	3.727934
379.940277	974.703125	8352.740234	1255.270142	3.802732
380.303864	970.765137	8349.694336	1255.121582	3.853627
380.667450	972.176941	8379.637695	1264.335083	3.944106
381.030945	976.783508	8383.501953	1267.827393	3.929458
381.394501	974.034363	8430.683594	1272.359863	4.000798
381.757935	970.319153	8492.875977	1268.273193	3.960808
382.121399	971.136536	8555.883789	1273.102905	3.981232
382.484741	977.972412	8687.473633	1283.133667	3.958249
382.848145	977.303650	8843.286133	1286.625854	3.932404
383.211487	978.641113	8978.072266	1287.814819	3.864946
383.574768	978.566895	9039.074219	1284.991333	3.801553
383.938019	975.594727	9064.560547	1288.706421	3.870850
384.301270	977.600891	9113.600586	1287.889038	3.813768
384.664459	976.040527	9149.265625	1293.238892	3.880945
385.027649	980.795898	9172.374023	1292.272827	3.802404
385.390778	977.377930	9284.868164	1297.102539	3.848631
385.753876	979.012634	9384.359375	1290.192383	3.702164
386.116943	982.059082	9489.274414	1293.015869	3.655213
386.479980	981.687561	9507.107422	1294.279175	3.666583
386.842987	976.040527	9558.301758	1299.034546	3.763507
387.205994	975.074646	9572.196289	1301.337891	3.795029
387.568909	976.709290	9542.030273	1302.452393	3.803046
387.931793	979.532715	9457.622070	1287.294556	3.630085
388.294678	974.405823	9414.749023	1283.059448	3.656885
388.657471	973.365662	9425.522461	1278.972778	3.615729
389.020294	976.412109	9490.909180	1289.226685	3.673905
389.383057	982.059082	9659.056641	1299.628906	3.659904
389.745819	979.755676	9849.197266	1308.916748	3.711182
390.108521	980.127197	10086.297852	1325.857788	3.796663
390.471191	970.690735	10379.125000	1330.910278	3.828687
390.833801	967.124207	10607.307617	1335.888550	3.825283
391.196442	962.963196	10790.985352	1336.408813	3.799804
391.558960	965.415222	10802.426758	1335.888550	3.766117
391.921509	968.907471	10796.408203	1336.780273	3.743299
392.284027	970.765076	10725.077148	1339.826660	3.783574
392.646484	974.108643	10678.639648	1343.690430	3.808342
393.008911	976.560547	10644.905273	1340.941040	3.768799
393.371307	976.412048	10679.901367	1335.888550	3.704611
393.733673	977.898132	10644.607422	1328.755493	3.629543
394.096008	977.452332	10574.094727	1327.343872	3.645979
394.458344	970.021973	10423.706055	1319.913574	3.701114
394.820587	964.895203	10214.246094	1310.402832	3.735480
395.182831	960.288391	9992.750977	1305.424438	3.821062
395.545013	968.758972	9766.276367	1295.393677	3.712805
395.907196	971.359558	9579.254883	1296.731079	3.779919
396.269287	982.579285	9469.213867	1289.746704	3.619426
396.631409	985.179871	9401.747070	1294.724976	3.677807
396.993469	992.238525	9388.967773	1292.867310	3.580308
397.355530	987.557434	9381.387695	1292.347168	3.631116
397.717499	985.848450	9416.532227	1289.523682	3.602024
398.079468	981.241699	9450.414063	1288.706299	3.630398
398.441376	975.891907	9448.928711	1293.758911	3.751512
398.803284	973.439941	9396.842773	1295.542236	3.823898
399.165131	980.275696	9384.062500	1307.059204	3.888527
399.526978	986.442871	9357.461914	1307.282104	3.832738
399.888763	982.727722	9371.132813	1312.408813	3.930200
400.250519	974.182922	9363.553711	1299.331665	3.875722
400.612244	974.554443	9404.569336	1302.080811	3.885241
400.973938	980.498718	9483.479492	1310.625610	3.882484
401.335602	976.857849	9557.484375	1322.142578	4.024004
401.697205	975.446106	9709.731445	1326.600708	4.020416
402.058807	977.526611	9878.546875	1321.994019	3.869977
402.420349	981.538879	10142.692383	1324.891724	3.747922
402.781860	983.396545	10380.759766	1333.288086	3.723295
403.143341	980.052917	10591.630859	1343.690430	3.783328
403.504822	980.201599	10793.139648	1359.294067	3.863190
403.866241	973.737122	10947.019531	1365.461304	3.927736
404.227631	967.124207	11054.758789	1378.018188	4.073244
404.588959	968.907532	11063.824219	1377.200806	4.044543
404.950287	969.576172	10999.551758	1380.841797	4.100365
405.311554	974.926025	10885.348633	1371.182251	3.998379
405.672821	979.012695	10765.275391	1370.736694	4.002795
406.034027	976.337708	10638.959961	1370.885254	4.083235
406.395203	982.950684	10463.160156	1363.975098	4.019156
406.756348	976.857849	10344.276367	1363.009033	4.122280
407.117493	979.681396	10298.208008	1366.501343	4.151085
407.478516	980.424377	10352.821289	1384.928345	4.315907
407.839600	980.350098	10421.327148	1404.841431	4.496265
408.200592	982.653503	10513.759766	1409.819824	4.481812
408.561554	981.687561	10631.901367	1428.989868	4.635154
408.922485	977.972473	10762.004883	1433.670898	4.657573
409.283417	983.025085	10885.273438	1448.828735	4.704019
409.644257	978.938293	10995.315430	1452.172241	4.724602
410.005096	986.294373	11089.531250	1461.162964	4.700163
410.365906	980.870300	11080.616211	1463.094727	4.774619
410.726715	977.155090	11064.418945	1467.107056	4.857134
411.087433	971.879639	10975.848633	1474.686157	5.026071
411.448120	966.455505	10932.901367	1480.704590	5.159804
411.808807	969.947754	10869.447266	1478.847046	5.140656
412.169434	975.520447	10817.583984	1473.942993	5.064208
412.530029	982.430603	10874.425781	1482.785156	5.058177
412.890564	985.848450	10955.713867	1500.246216	5.159526
413.251099	979.012634	11119.996094	1519.787720	5.332571
413.611572	975.891846	11251.809570	1541.335571	5.502610
413.972076	973.439941	11429.765625	1558.945435	5.599534
414.332489	971.433838	11564.625000	1568.233276	5.633802
414.692871	966.901367	11779.359375	1584.728516	5.714030
415.053223	966.901306	11950.627930	1601.223633	5.775110
415.413574	968.907410	12231.416992	1630.276001	5.872302
415.773834	980.572937	12469.557617	1645.656616	5.788881
416.134094	981.538879	12760.526367	1665.718384	5.808475
416.494263	983.990906	13024.598633	1688.455078	5.850736
416.854462	980.275818	13390.687500	1707.030762	5.856010
417.214630	981.167480	13831.972656	1734.671265	5.863475
417.574738	975.297546	14253.120117	1759.339844	5.904902
417.934784	978.343933	14713.871094	1802.807007	6.002413
418.294861	980.424316	15248.627930	1837.357788	6.005896
418.654846	989.712219	15893.426758	1876.515137	5.950214
419.014832	993.501648	16530.498047	1907.796509	5.884631
419.374756	992.089905	17191.792969	1948.663086	5.904881
419.734680	994.616211	17896.033203	1982.619507	5.845683
420.094543	983.916687	18465.712891	2025.046265	5.955507
420.454376	982.653503	18820.507813	2049.863281	5.982837
420.814148	984.585388	18992.146484	2074.011963	6.049829
421.173920	987.408875	19128.271484	2079.881592	6.022165
421.533691	986.517273	19234.820313	2079.213135	5.987931
421.893341	977.006531	19256.812500	2080.847656	6.038582
422.253021	972.325439	19206.583984	2081.516602	6.083007
422.612640	979.978577	19145.134766	2079.658936	6.053790
422.972260	982.802063	19169.283203	2085.008789	6.060583
423.331757	991.346863	19271.302734	2078.395752	5.946671
423.691315	988.746277	19450.966797	2084.265381	5.933842
424.050781	986.591553	19451.708984	2077.726807	5.909171
424.410248	978.938293	19260.677734	2075.200928	5.996490
424.769653	968.164368	18940.951172	2063.980957	6.097088
425.128998	974.034363	18567.953125	2043.770508	6.080147
425.488373	978.566833	18093.455078	2023.560181	6.105756
425.847656	981.613281	17627.503906	1999.188965	6.113074
426.206940	976.634949	17193.798828	1973.926147	6.149603
426.566193	978.715393	16855.201172	1944.056274	6.080318
426.925385	975.520325	16460.726563	1909.208374	6.029549
427.284576	974.108704	16033.932617	1880.378906	6.017801
427.643677	975.223206	15664.424805	1869.976563	6.091232
428.002777	982.133301	15407.559570	1875.846558	6.195403
428.361847	981.836121	15180.492188	1875.772095	6.295919
428.720856	977.155090	14966.127930	1856.304810	6.284591
429.079865	974.182922	14835.726563	1839.215332	6.240520
429.438812	980.498718	14812.989258	1830.447632	6.144584
429.797760	979.607117	14804.742188	1835.203003	6.188698
430.156616	979.755676	14651.828125	1836.911987	6.269396
430.515503	977.303711	14540.374023	1829.630249	6.284171
430.874268	974.703125	14554.120117	1814.175171	6.181945
431.233093	980.572998	14684.817383	1816.032715	6.096357
431.591827	981.241699	14869.163086	1832.825195	6.131828
431.950562	984.288147	15008.109375	1870.719727	6.320899
432.309204	973.662903	15150.770508	1883.351196	6.416600
432.667877	972.622742	15312.527344	1886.620483	6.373806
433.026459	974.034363	15384.229492	1875.474976	6.255575
433.385010	978.269714	15449.764648	1877.555542	6.214188
433.743561	973.365540	15462.694336	1878.967163	6.250128
434.102051	970.839355	15497.838867	1888.254883	6.315244
434.460510	973.439880	15514.928711	1888.254883	6.291068
434.818939	978.195313	15485.355469	1901.183594	6.362295
435.177338	980.795898	15462.768555	1900.143433	6.348220
435.535675	974.480164	15440.031250	1903.635620	6.423229
435.894012	975.371826	15445.901367	1897.840210	6.374807
436.252289	976.263428	15622.147461	1908.316895	6.363928
436.610535	975.000305	15716.957031	1906.682129	6.319933
436.968719	971.582336	16034.601563	1925.480591	6.332716
437.326935	966.529785	16287.973633	1934.099976	6.315137
437.685028	970.987976	16621.148438	1957.505249	6.303560
438.043152	969.947754	16856.615234	1961.369141	6.240587
438.401215	971.136536	17150.257813	1976.898315	6.216418
438.759277	965.043701	17529.201172	1996.142578	6.224879
439.117249	970.616455	18002.804688	2037.231812	6.262351
439.475250	967.867188	18413.550781	2069.107666	6.312395
439.833130	974.331604	18821.994141	2093.627930	6.271389
440.191071	970.987976	19013.546875	2101.058105	6.263358
440.548889	980.573059	19125.373047	2099.646484	6.167461
440.906708	980.795898	19066.302734	2091.621338	6.142075
441.264496	979.830017	18880.693359	2073.194580	6.107887
441.622223	969.650452	18652.062500	2061.380615	6.174102
441.979950	972.622559	18343.855469	2048.674561	6.194448
442.337616	971.953796	18092.935547	2039.015259	6.232478
442.695251	973.216980	17802.560547	2030.470337	6.282202
443.052887	972.399658	17703.218750	2023.931763	6.285001
443.410461	968.758789	17794.685547	2022.817383	6.264491
443.768005	973.068359	18012.912109	2027.869995	6.190207
444.125458	966.604065	18250.308594	2047.708618	6.255051
444.482941	970.616455	18595.964844	2070.668213	6.241305
444.840393	971.508118	19134.734375	2095.708252	6.189430
445.197754	979.086914	19659.906250	2115.175293	6.081576
445.555084	981.761902	20065.080078	2130.853271	6.021444
445.912415	981.093079	20300.767578	2147.645752	6.038159
446.269714	982.727783	20446.101563	2165.106934	6.074893
446.626953	984.436768	20473.816406	2175.137695	6.109486
446.984161	983.916687	20321.720703	2165.106934	6.108191
447.341309	978.120911	20065.748047	2141.775879	6.096384
447.698456	976.783508	19736.511719	2129.144531	6.142739
448.055542	977.080811	19497.554688	2118.445068	6.162716
448.412598	978.492493	19171.142578	2102.098389	6.176153
448.769653	977.155090	18820.138672	2066.878906	6.107296
449.126617	979.978516	18346.158203	2043.696289	6.125226
449.483582	980.424316	18040.550781	2031.064819	6.158456
449.840515	975.743347	17708.937500	2010.705933	6.185088
450.197388	966.901367	17516.419922	1999.188965	6.237568
450.554230	964.895203	17346.712891	1979.944702	6.196196
450.911041	964.003601	17357.859375	1978.087036	6.185753
451.267822	974.331604	17439.220703	1980.984863	6.113939
451.624573	978.121094	17498.960938	1993.244751	6.144504
451.981262	985.328430	17432.681641	2006.322266	6.207648
452.337921	976.709290	17238.826172	2004.093140	6.317651
452.694580	972.102539	16942.208984	1979.647461	6.308943
453.051147	972.176758	16747.238281	1956.242065	6.238108
453.407715	979.309875	16399.054688	1925.555054	6.136581
453.764221	984.065247	16229.496094	1925.406372	6.174579
454.120728	981.018799	15866.082031	1910.397339	6.243699
454.477142	970.616394	15809.835938	1905.047485	6.297037
454.833557	969.204651	15708.932617	1887.957642	6.233175
455.189911	969.799133	15721.786133	1895.239624	6.273328
455.546265	973.885742	15778.108398	1896.131226	6.229611
455.902557	970.987976	15819.569336	1908.539673	6.314083
456.258820	969.724792	16054.215820	1914.780884	6.265084
456.615051	970.839355	16323.637695	1940.712524	6.317240
456.971252	972.325378	16655.994141	1960.551392	6.300987
457.327393	971.508057	17207.025391	1982.396484	6.226401
457.683502	966.752625	17880.800781	2017.541870	6.212524
458.039612	963.780579	18830.166016	2066.432861	6.171659
458.395630	965.935364	19746.244141	2133.379639	6.216321
458.751648	975.966309	20564.912109	2180.041748	6.146709
459.107605	978.418274	21294.492188	2223.434570	6.128233
459.463562	977.675293	21558.562500	2241.415771	6.140360
459.819458	973.885742	21501.794922	2235.323242	6.144988
460.175323	969.947754	20947.421875	2201.886963	6.166641
460.531158	975.000305	20226.984375	2156.933838	6.139282
460.886932	978.046692	19414.039063	2112.054932	6.151056
461.242676	979.681396	18668.187500	2071.188477	6.170714
461.598419	970.542175	18128.304688	2032.848267	6.191403
461.954102	972.919739	17609.671875	1999.783325	6.172260
462.309723	973.662903	17175.150391	1973.926147	6.173898
462.665344	980.572998	16822.285156	1961.517578	6.192163
463.020905	976.709229	16612.304688	1952.155396	6.238625
463.376373	982.579102	16548.478516	1950.595093	6.218825
463.731873	980.647278	16519.871094	1944.799438	6.204635
464.087341	979.978577	16567.425781	1950.446411	6.225957
464.442749	978.566833	16722.792969	1954.013062	6.195580
464.798126	977.749451	16864.861328	1959.511353	6.179612
465.153503	974.182922	17049.726563	1968.501953	6.185290
465.508820	971.582336	17180.869141	1976.229492	6.197972
465.864105	977.675110	17298.789063	1987.151978	6.185098
466.219330	978.418152	17523.406250	1993.690796	6.136436
466.574524	972.771179	17600.830078	1998.743164	6.170125
466.929657	971.433655	17503.193359	1986.111694	6.137750
467.284790	968.833191	17295.443359	1974.743286	6.161169
467.639893	974.331543	17064.212891	1956.464844	6.104043
467.994934	966.158203	16892.947266	1954.310059	6.204338
468.349945	971.656677	16652.947266	1940.266968	6.176853
468.704926	973.142761	16501.667969	1921.914063	6.109861
469.059875	979.978577	16367.254883	1908.688354	6.035570
469.414764	972.622620	16322.153320	1902.446899	6.057673
469.769653	971.508057	16274.749023	1917.233032	6.179900
470.124451	958.876648	16323.565430	1916.267212	6.231110
470.479248	970.170654	16376.989258	1925.332031	6.199602
470.834015	966.232666	16460.876953	1926.595337	6.198030
471.188721	980.870300	16687.427734	1933.282593	6.063787
471.543365	981.836121	16922.818359	1941.752930	6.021692
471.898010	986.220032	17147.880859	1954.235840	5.989581
472.252625	982.950684	17409.052734	1976.378052	6.047858
472.607178	977.823914	17646.968750	1994.879395	6.101426
472.961700	978.418274	17752.033203	2004.167358	6.115253
473.316193	979.532776	17782.498047	2010.557251	6.135967
473.670654	978.864014	17727.142578	2000.229126	6.098329
474.025055	977.823914	17837.408203	2010.111328	6.122852
474.379456	980.127258	17887.787109	2013.826538	6.113792
474.733795	973.588562	18051.845703	2030.619019	6.189334
475.088104	978.566895	18321.712891	2044.067871	6.143643
475.442383	972.473938	18659.568359	2071.708740	6.214898
475.796570	981.910461	18954.921875	2091.918945	6.175974
476.150787	977.898132	19326.955078	2116.958740	6.207734
476.504944	980.350098	19681.156250	2130.853516	6.152159
476.859070	980.870300	20070.056641	2150.692383	6.128192
477.213135	984.734070	20326.103516	2156.710938	6.059431
477.567200	987.111633	20610.980469	2182.345215	6.090714
477.921173	984.288269	20878.767578	2194.159424	6.081441
478.275146	976.040527	21112.968750	2213.849854	6.146962
478.629089	971.136536	21393.908203	2219.125244	6.110771
478.983002	970.690674	21856.218750	2240.747314	6.081037
479.336823	972.919739	22411.632813	2276.487061	6.080437
479.690643	973.960144	23107.107422	2312.523682	6.047778
480.044403	975.446106	23984.771484	2368.028076	6.052250
480.398163	971.805359	25203.630859	2439.952881	6.058757
480.751862	973.885742	26841.783203	2533.053955	6.027425
481.105499	974.108704	29027.398438	2668.136230	6.038606
481.459137	979.755676	32213.203125	2853.224609	5.998278
481.812744	977.972473	36461.609375	3117.964844	6.030928
482.166290	976.560608	41570.738281	3422.308838	6.024875
482.519806	971.582336	46727.792969	3768.559814	6.112782
482.873291	971.953918	51007.031250	4057.300049	6.166366
483.226715	975.446106	53771.917969	4287.341309	6.272948
483.580139	980.647278	54832.656250	4366.919434	6.288108
483.933502	975.223145	54350.656250	4335.340820	6.295251
484.286804	967.718567	52581.953125	4175.292969	6.214515
484.640106	969.056091	49880.750000	3950.453125	6.095469
484.993347	975.297546	46993.644531	3732.523193	5.991579
485.346558	980.498718	44678.222656	3589.044189	5.969522
485.699738	981.910461	43480.390625	3533.614502	6.004224
486.052887	988.300476	43494.433594	3548.177979	6.022372
486.405975	987.706055	44343.050781	3589.638916	6.001412
486.759064	995.953674	45378.457031	3654.728271	5.990592
487.112061	989.786621	45910.542969	3694.628662	6.021363
487.464996	985.477051	45674.550781	3681.699951	6.033293
487.817963	980.795898	44599.316406	3598.183594	6.000634
488.170868	981.539001	42848.894531	3481.528320	5.971214
488.523743	986.591553	40788.402344	3355.362305	5.951414
488.876587	982.207703	38793.675781	3239.449951	5.969729
489.229401	985.476990	37481.636719	3152.144287	5.936699
489.582153	992.758606	37083.074219	3135.426514	5.936961
489.934845	988.523438	37642.648438	3165.593018	5.939494
490.287537	979.904297	38869.832031	3234.174561	5.949523
490.640198	963.334778	40178.378906	3308.997314	5.981538
490.992798	965.043762	40943.101563	3359.374756	5.989113
491.345337	972.994141	40825.406250	3365.021484	6.002214
491.697876	983.322266	39632.328125	3296.811768	5.985896
492.050354	981.836182	37733.968750	3190.484619	6.009579
492.402832	977.898193	35161.906250	3031.253906	6.006773
492.755219	971.731018	32407.650391	2866.227539	6.026535
493.107605	973.811523	29855.500000	2712.272217	6.019249
493.459930	962.740295	27825.031250	2603.790283	6.109122
493.812225	964.226379	26456.375000	2517.747803	6.094118
494.164490	960.957092	25644.544922	2453.550537	6.046906
494.516724	971.879578	25301.861328	2426.132568	5.977205
494.868896	973.811462	25239.744141	2425.018066	5.980427
495.221039	973.216980	25402.763672	2441.587646	6.010634
495.573120	973.960022	25609.250000	2462.392334	6.041871
495.925201	972.994141	25860.392578	2479.779053	6.054409
496.277222	978.046692	26030.470703	2499.989258	6.075031
496.629211	975.817627	26042.955078	2501.698242	6.087175
496.981140	982.430603	25913.443359	2493.599365	6.061401
497.333069	979.235535	25686.150391	2481.339600	6.079691
497.684967	983.470764	25408.185547	2455.556152	6.027032
498.036804	978.492493	24992.908203	2423.606201	6.017693
498.388580	982.059082	24496.492188	2389.203857	5.984175
498.740326	979.532776	24000.521484	2369.439453	6.037563
499.092072	984.585449	23520.156250	2346.480225	6.043312
499.443756	978.418274	23088.607422	2315.346924	6.046663
499.795410	983.322266	22694.501953	2290.678467	6.021581
500.147003	973.514221	22418.837891	2274.628906	6.067125
500.498566	979.681396	22144.884766	2269.799561	6.095468
500.850098	971.359436	21985.060547	2259.174316	6.128454
501.201599	967.198486	21835.935547	2255.533447	6.173517
501.553009	963.557617	21757.769531	2244.759766	6.161341
501.904449	967.421387	21705.164063	2237.998047	6.126880
502.255859	974.034363	21716.679688	2233.019775	6.069551
502.607178	983.470764	21765.794922	2233.093994	6.012914
502.958405	984.585266	21846.634766	2234.654541	5.992074
503.309692	985.551270	21887.576172	2229.081787	5.949330
503.660919	979.086914	21958.087891	2228.487061	5.955480
504.012115	982.579163	21952.740234	2220.313721	5.902361
504.363251	987.631775	21948.654297	2230.567627	5.929748
504.714294	990.158020	21866.029297	2233.688477	5.956784
505.065369	985.476990	21775.156250	2236.883545	6.019364
505.416443	982.282043	21642.970703	2228.932861	6.033927
505.767395	977.155090	21624.468750	2223.509033	6.036397
506.118317	976.783508	21606.414063	2222.171631	6.036891
506.469238	972.696960	21768.318359	2231.608154	6.053732
506.820160	973.662842	21919.970703	2240.524414	6.048138
507.170929	969.799072	22189.318359	2257.019531	6.066209
507.521729	972.102356	22431.470703	2268.387695	6.040650
507.872498	980.127136	22663.296875	2285.848877	6.021821
508.223236	980.424316	22927.664063	2300.932373	6.016738
508.573883	988.746277	23165.953125	2316.981689	5.989191
508.924500	979.755676	23426.978516	2325.229492	5.993944
509.275116	988.672058	23531.968750	2328.424561	5.943019
509.625702	983.173645	23656.873047	2335.483154	5.964221
509.976196	982.504883	23781.849609	2345.365479	5.977631
510.326660	980.052917	24067.244141	2363.495117	5.992249
510.677124	971.656677	24280.568359	2375.680908	6.023551
511.027557	969.724792	24511.947266	2385.042969	6.011829
511.377869	966.455505	24600.740234	2390.021240	6.023307
511.728180	969.947754	24648.218750	2389.055420	5.993291
512.078430	976.486389	24609.583984	2386.677734	5.967019
512.428650	974.851746	24518.708984	2382.887939	5.980482
512.778931	976.560730	24390.240234	2369.067871	5.947408
513.129028	976.263489	24218.078125	2358.294189	5.946312
513.479126	968.535950	24056.546875	2347.966064	5.974660
513.829285	966.306885	23923.396484	2356.362061	6.055015
514.179382	961.700195	23815.062500	2355.396240	6.098429
514.529297	967.495789	23794.703125	2351.978271	6.065054
514.879272	970.765076	23930.007813	2346.257080	5.991016
515.229187	977.377930	24056.099609	2349.971924	5.947443
515.579163	980.721680	24470.412109	2379.024414	5.952836
515.928955	975.891907	24961.478516	2415.878662	6.003551
516.278748	973.217041	25655.462891	2459.642822	6.022247
516.628540	966.901184	26429.031250	2504.373047	6.038269
516.978333	968.684570	27288.490234	2546.577148	5.995077
517.327942	969.353333	28228.791016	2603.344482	5.994222
517.677612	972.919922	28994.037109	2638.117920	5.942654
518.027222	970.616455	29512.076172	2674.823486	5.970988
518.376831	971.656677	29670.710938	2670.588379	5.919817
518.726379	978.046692	29450.703125	2660.631836	5.909477
519.075867	985.551270	28925.529297	2631.059326	5.889439
519.425293	989.117859	28226.787109	2609.214355	5.947999
519.774658	985.477051	27467.859375	2566.861572	5.971458
520.124084	985.179749	26806.568359	2520.273926	5.945049
520.473389	981.687561	26294.025391	2490.775635	5.961868
520.822693	983.099304	25991.015625	2479.556396	5.983933
521.171997	983.173584	25816.626953	2476.955566	6.015201
521.521240	976.263428	25763.208984	2465.958740	6.010000
521.870361	974.703125	25821.015625	2459.791748	5.977099
522.219482	974.777344	26026.757813	2475.097900	5.988830
522.568604	981.093079	26327.087891	2501.995605	6.000564
522.917664	982.356201	26757.078125	2531.791016	6.011451
523.266724	978.195313	27387.609375	2567.902100	6.019470
523.615662	980.275818	28270.103516	2605.425049	5.955146
523.964600	972.399719	29366.515625	2662.563477	5.952515
524.313538	975.594727	30598.677734	2732.631104	5.931308
524.662354	965.935364	31942.812500	2805.522217	5.938581
525.011169	976.857849	33223.199219	2889.335693	5.930836
525.359985	977.303711	34507.222656	2966.090576	5.931380
525.708740	980.498718	35805.218750	3057.259766	5.963468
526.057434	972.696838	37473.242188	3145.680420	5.953290
526.406067	972.325378	39643.402344	3262.409424	5.921956
526.754700	972.622620	42583.042969	3427.956055	5.900766
527.103333	971.953796	45819.667969	3657.699951	5.988591
527.451782	966.381104	49156.597656	3900.298584	6.088202
527.800293	972.102539	51705.328125	4104.779785	6.174804
528.148743	979.830017	53254.613281	4222.995605	6.204072
528.497131	976.263489	53293.031250	4227.230957	6.214006
528.845642	971.210938	52092.300781	4110.501465	6.140891
529.193909	968.610291	49708.667969	3911.963867	6.038880
529.542175	984.585266	46472.261719	3689.130127	5.945665
529.890503	984.139465	42943.035156	3485.540771	5.961552
530.238770	982.802063	39747.718750	3302.607422	5.984291
530.586914	974.851746	37495.378906	3161.506592	5.987468
530.934998	978.715515	36191.074219	3088.615479	5.991930
531.283142	982.281982	36082.738281	3077.841797	5.970178
531.631226	978.715515	36732.070313	3115.141602	5.975456
531.979248	981.761902	37994.695313	3180.973877	5.941739
532.327148	981.390381	39188.667969	3253.790283	5.947558
532.675110	985.328430	40003.765625	3313.158203	5.965974
533.023071	983.916687	40092.562500	3327.350342	5.992112
533.370850	977.675293	39425.250000	3289.827148	6.013778
533.718689	980.350098	38225.261719	3210.100342	5.986725
534.066467	975.891907	36689.941406	3101.321289	5.951241
534.414246	976.783508	35145.781250	3016.393311	5.969183
534.761963	972.251160	33922.535156	2938.226807	5.966490
535.109619	975.223145	33250.839844	2895.354248	5.949169
535.457153	979.161194	32995.386719	2867.044922	5.896647
535.804749	984.733948	32971.015625	2875.515381	5.911226
536.152344	990.306641	32837.566406	2886.586670	5.954296
536.499817	992.832947	32482.177734	2870.388428	5.962510
536.847229	986.740051	31869.255859	2832.048096	5.975252
537.194641	974.925964	31033.718750	2779.070313	6.002052
537.542114	973.588562	30277.095703	2726.761230	5.982808
537.889404	979.607117	29571.890625	2696.520020	6.004812
538.236694	985.551270	29171.771484	2662.266602	5.948706
538.583984	979.978516	29251.273438	2674.526611	5.993882
538.931213	975.891907	29953.060547	2694.736816	5.931722
539.278381	980.350098	31446.990234	2788.283936	5.934143
539.625488	984.808105	33352.187500	2904.196045	5.930007
539.972595	988.820496	35880.933594	3069.222656	5.962385
540.319641	982.802063	38193.011719	3208.688721	5.981925
540.666687	982.207703	40177.636719	3327.572998	5.983772
541.013611	974.926025	41277.093750	3372.526367	5.949060
541.360596	971.656677	41560.261719	3392.513672	5.964375
541.707458	964.300598	40866.871094	3355.956787	5.993740
542.054260	965.935364	39411.058594	3289.158447	6.042959
542.401062	967.867249	37708.113281	3176.664063	6.011927
542.747864	975.297607	35858.195313	3065.135986	5.991011
543.094666	974.257324	33997.210938	2949.297852	5.980811
543.441284	973.885803	32137.265625	2842.599365	5.996505
543.787903	974.554504	30622.453125	2745.708252	5.973961
544.134460	977.823792	29352.546875	2668.359375	5.957893
544.481079	979.384094	28484.765625	2625.932617	5.986278
544.827637	978.343933	27901.568359	2602.229736	6.031542
545.174072	980.944519	27609.257813	2595.691162	6.064022
545.520508	986.665833	27510.880859	2588.260742	6.038237
545.866943	980.127197	27357.593750	2584.843018	6.083662
546.213318	976.114807	27233.656250	2578.007080	6.100694
546.559631	965.786804	26797.724609	2554.973389	6.152022
546.905823	973.439941	26301.304688	2522.577393	6.116336
547.252136	978.120911	25579.009766	2476.137939	6.089281
547.598389	985.774170	24798.236328	2420.856689	6.026603
547.944458	980.870178	23913.291016	2365.650146	6.038526
548.290588	976.560730	22939.630859	2309.179932	6.067545
548.636658	972.622620	22020.132813	2269.056396	6.159559
548.982727	979.681396	21220.560547	2217.267334	6.114289
549.328735	982.281982	20708.169922	2179.595947	6.069759
549.674622	990.158020	20311.318359	2141.478760	5.958859
550.020569	989.340759	20080.978516	2125.280518	5.949933
550.366455	984.808289	19911.941406	2115.621338	5.974560
550.712280	980.350098	19907.333984	2121.268311	6.027998
551.058044	978.938416	19972.498047	2126.246582	6.040511
551.403748	985.031250	20062.330078	2134.865723	6.027239
551.749512	986.294373	20202.759766	2147.125732	6.040816
552.095154	981.241699	20357.755859	2149.949219	6.031568
552.440735	979.161316	20462.373047	2151.360596	6.016458
552.786316	977.898132	20401.000000	2142.667480	5.996824
553.131897	980.498718	20204.619141	2133.974365	6.000147
553.477417	975.817688	19907.927734	2114.878174	6.016554
553.822815	976.412109	19587.535156	2091.696045	5.992567
554.168213	976.040527	19247.822266	2072.080078	5.998537
554.513672	981.984680	18917.695313	2061.380615	6.018139
554.859009	976.932129	18615.804688	2039.238281	6.022529
555.204285	977.972473	18362.876953	2025.120728	6.023319
555.549500	974.926086	18168.279297	2010.037231	6.020414
555.894714	978.566895	18039.289063	2012.414917	6.059814
556.239990	976.114807	17933.927734	2001.120972	6.044448
556.585022	977.006531	17858.658203	1991.387329	6.008777
556.930115	974.183044	17734.572266	1980.464844	6.003929
557.275146	975.594727	17576.755859	1974.594849	6.017653
557.620178	972.994141	17434.167969	1970.508179	6.059799
557.965149	972.919739	17319.666016	1966.049927	6.075400
558.310059	973.142761	17254.503906	1963.152222	6.080631
558.654968	976.486389	17206.951172	1952.526855	6.013632
558.999756	977.972412	17218.095703	1946.136719	5.961558
559.344604	973.588562	17278.207031	1961.443237	6.058742
559.689331	970.096375	17329.548828	1966.272949	6.089303
560.033997	967.867249	17347.976563	1975.189087	6.149665
560.378723	967.644348	17389.660156	1968.799194	6.096419
560.723389	961.848694	17451.927734	1981.207886	6.181652
561.067932	960.139832	17546.587891	1982.768188	6.165445
561.412476	964.300781	17541.833984	1978.458496	6.117663
561.757019	972.028259	17514.564453	1966.941772	6.014274
562.101501	977.749512	17423.320313	1961.443237	5.981512
562.445862	979.309875	17331.333984	1949.406250	5.932577
562.790222	978.121033	17236.003906	1938.483765	5.907059
563.134644	979.755676	17227.533203	1937.889282	5.897013
563.478943	982.950745	17311.568359	1950.669312	5.926519
563.823181	989.860840	17475.630859	1975.337891	5.977744
564.167358	984.956848	17699.429688	1982.916870	5.970634
564.511536	979.458496	17997.531250	1988.563843	5.929610
564.855774	971.582336	18327.955078	2001.863892	5.936041
565.199768	969.724792	18673.017578	2032.402344	6.002711
565.543823	971.359436	18941.546875	2055.584717	6.033467
565.887817	977.006531	19197.966797	2067.547607	5.985091
566.231812	981.687561	19217.804688	2076.612549	6.004157
566.575745	981.390381	19116.603516	2070.222412	6.003966
566.919617	984.808289	18833.882813	2061.157471	6.030280
567.263428	979.978516	18567.060547	2035.894531	6.003930
567.607239	975.223206	18358.865234	2021.256836	6.017344
567.950989	968.758850	18179.498047	1998.223145	5.981524
568.294678	974.034363	18069.603516	1993.244751	5.961840
568.638367	977.452332	17975.984375	1994.285156	5.981886
568.981995	976.337830	17936.751953	2005.356079	6.067177
569.325623	968.535950	17998.943359	2013.306641	6.134737
569.669128	970.839355	18080.750000	2022.817383	6.148355
570.012573	972.771240	18240.945313	2024.229004	6.088992
570.356140	970.913757	18425.291016	2027.201172	6.051705
570.699524	969.055969	18705.710938	2046.668579	6.075624
571.042908	970.690735	19045.869141	2067.993408	6.070772
571.386230	974.331543	19290.250000	2086.791992	6.073736
571.729492	982.059082	19410.544922	2085.083008	5.985429
572.072815	980.573059	19395.091797	2091.175781	6.031126
572.416016	984.065247	19299.759766	2084.265625	6.006872
572.759094	980.647278	19174.263672	2085.008545	6.070048
573.102234	977.675110	19002.474609	2071.931152	6.070837
573.445374	973.439941	18839.529297	2050.160645	6.026617
573.788391	974.183044	18686.986328	2029.653198	5.958798
574.131409	978.046692	18587.865234	2021.925659	5.927823
574.474365	985.476990	18509.921875	2023.560181	5.923630
574.817261	981.018738	18416.152344	2020.365234	5.961219
575.160156	980.127136	18216.052734	2019.399292	6.029686
575.502930	974.480164	17985.937500	2003.275513	6.047662
575.845703	973.737122	17702.027344	1988.489380	6.066084
576.188477	976.709167	17400.582031	1954.013062	5.950508
576.531250	974.925964	17062.728516	1938.855347	5.991678
576.873901	984.288086	16710.830078	1916.341431	5.926626
577.216431	977.377991	16376.617188	1914.261108	6.083957
577.559082	982.504883	16021.820313	1895.908203	6.073437
577.901611	972.102478	15707.965820	1881.864868	6.173798
578.244080	977.823792	15421.976563	1859.128418	6.101463
578.586487	971.508118	15197.135742	1841.741577	6.117364
578.928955	981.093201	14992.653320	1836.168945	6.102644
579.271301	982.950684	14800.730469	1817.518921	6.039814
579.613647	985.551270	14611.926758	1805.630493	6.018323
579.955872	978.121094	14470.901367	1795.748169	6.059738
580.298157	973.068420	14365.836914	1793.741821	6.127735
580.640320	981.167480	14314.122070	1790.026733	6.066617
580.982483	977.749512	14262.778320	1769.296387	5.958187
581.324524	980.127197	14233.578125	1766.547241	5.933700
581.666626	970.690735	14156.004883	1768.256226	6.048892
582.008728	972.473938	14062.682617	1764.838257	6.053107
582.350647	971.285156	13954.645508	1756.070679	6.044549
582.692566	973.960022	13850.769531	1740.838501	5.955501
583.034424	978.789734	13794.448242	1746.411133	5.989715
583.376343	977.006531	13686.709961	1741.135620	6.012171
583.718201	976.263428	13648.073242	1743.513306	6.054778
584.059937	976.337708	13498.054688	1738.906616	6.089971
584.401611	982.579102	13443.739258	1738.237915	6.064113
584.743347	988.969177	13418.179688	1742.250122	6.060569
585.085022	992.684326	13427.467773	1732.739258	5.951490
585.426514	988.077454	13429.101563	1740.244019	6.045857
585.768127	988.449036	13433.411133	1731.550415	5.971102
586.109619	980.275818	13484.012695	1735.117188	6.036926
586.451172	984.065247	13523.764648	1726.275024	5.918880
586.792542	984.065247	13524.209961	1729.395874	5.943557
587.133850	991.569824	13569.979492	1734.077026	5.903029
587.475220	986.071472	13617.756836	1729.395996	5.884603
587.816589	981.910461	13671.032227	1730.510376	5.899540
588.157776	973.217041	13714.796875	1743.959351	6.049032
588.498962	969.056152	13780.406250	1758.894043	6.165142
588.840210	966.975586	13872.838867	1768.107544	6.207504
589.181335	967.867249	13930.348633	1765.952759	6.156888
589.522400	972.919861	13977.976563	1759.414063	6.047603
589.863403	970.765076	13957.838867	1764.243652	6.109756
590.204407	977.006531	13884.354492	1759.339722	6.061146
590.545410	975.371765	13773.643555	1760.900024	6.137768
590.886353	973.068420	13626.003906	1743.067383	6.085536
591.227112	964.895081	13543.528320	1740.244141	6.164017
591.567932	962.220215	13456.817383	1736.157349	6.194174
591.908752	958.802307	13473.164063	1745.296509	6.284733
592.249512	962.294495	13503.479492	1733.333862	6.148058
592.590149	966.604065	13503.331055	1731.030396	6.097496
592.930786	971.507996	13514.104492	1723.748657	5.997488
593.271423	973.291321	13575.479492	1737.346191	6.062874
593.612000	980.572998	13720.815430	1751.686646	6.052582
593.952576	982.727783	13892.528320	1768.999146	6.090499
594.292969	976.857849	14013.938477	1777.395386	6.140466
594.633484	968.164490	14205.268555	1790.324097	6.211023
594.973877	968.684570	14440.289063	1810.980103	6.252377
595.314209	980.052917	14731.480469	1829.407227	6.176481
595.654480	984.213867	15067.700195	1844.936646	6.111575
595.994812	987.631775	15410.831055	1850.063477	5.979476
596.335022	981.761902	15701.280273	1862.249146	5.981767
596.675171	978.566895	15807.754883	1871.165405	6.019200
597.015320	976.709290	15730.851563	1865.369751	6.023125
597.355408	979.235596	15457.046875	1848.428711	6.003622
597.695496	981.984680	15078.250977	1816.330078	5.918911
598.035461	979.458496	14543.643555	1789.581055	5.972512
598.375366	981.390320	14027.684570	1762.980835	5.990901
598.715271	974.108643	13583.206055	1743.661987	6.103159
599.055176	979.606934	13225.140625	1719.364868	6.041043
599.395081	972.028137	13000.004883	1702.201172	6.070622
599.734802	980.424316	12767.065430	1685.408691	5.981215
600.074524	983.396484	12677.381836	1675.452148	5.918048
600.414246	991.346863	12633.394531	1673.817383	5.862117
600.753906	991.569824	12666.756836	1676.343750	5.865207
601.093506	987.260254	12749.157227	1689.718262	5.972319
601.433044	977.823914	12896.127930	1706.064819	6.110273
601.772583	977.972412	13103.209961	1720.999634	6.127940
602.112122	976.040527	13389.721680	1732.813843	6.096284
602.451538	973.737122	13710.411133	1738.980835	6.008191
602.790894	969.130371	14127.028320	1753.395508	5.960413
603.130310	967.124207	14535.247070	1782.596680	6.010209
603.469604	968.461731	14905.573242	1825.618042	6.150172
603.808838	962.740295	15247.067383	1849.692017	6.209265
604.148010	966.009705	15509.726563	1858.905640	6.139393
604.487305	973.216980	15617.167969	1857.047852	6.035467
604.826416	986.219971	15545.764648	1858.979858	5.994417
605.165527	981.761780	15254.348633	1839.735352	6.011339
605.504456	975.223206	14921.770508	1804.441772	5.945691
605.843445	967.792969	14455.817383	1770.262329	5.949495
606.182434	972.622742	13994.620117	1751.463867	5.980965
606.521423	977.155090	13543.007813	1733.110962	6.015954
606.860229	971.359436	13218.083008	1725.011841	6.153911
607.199036	977.526550	13006.542969	1714.089478	6.123218
607.537903	975.074524	12954.828125	1712.380493	6.154600
607.876648	981.390320	12988.859375	1700.120483	5.985693
608.215271	977.526611	13153.512695	1707.327759	5.993774
608.553955	981.761902	13335.257813	1720.033691	5.976217
608.892578	986.145752	13532.976563	1739.575195	6.004938
609.231140	985.179871	13629.718750	1757.259399	6.106031
609.569641	985.699890	13653.346680	1762.163208	6.129499
609.908081	983.396484	13549.770508	1762.386230	6.199002
610.246521	982.876282	13351.827148	1751.983887	6.218050
610.584961	980.498718	13041.242188	1735.191406	6.257431
610.923340	981.093079	12699.597656	1721.817017	6.320976
611.261597	979.904297	12347.625000	1697.817261	6.315364
611.599854	977.972412	12070.476563	1674.040405	6.275121
611.938110	980.201477	11796.225586	1649.446167	6.187530
612.276245	981.538879	11594.046875	1633.693848	6.145154
612.614319	979.309875	11403.089844	1620.393555	6.150203
612.952393	977.229309	11224.614258	1612.220337	6.196615
613.290466	976.560730	11081.136719	1609.322632	6.262132
613.628479	985.997131	10899.763672	1604.864380	6.242504
613.966370	988.672058	10824.123047	1598.697388	6.202312
614.304260	983.842346	10722.774414	1581.087524	6.132554
614.642151	974.405945	10666.452148	1573.731567	6.183685
614.979980	964.375000	10605.821289	1561.768921	6.196103
615.317749	968.833191	10596.385742	1557.310669	6.112431
615.655396	971.805237	10583.753906	1559.242554	6.111532
615.993164	981.093079	10597.127930	1558.276733	6.002304
616.330811	979.755798	10575.506836	1564.963867	6.098617
616.668396	978.195313	10570.007813	1558.276733	6.047673
617.005859	977.080750	10561.983398	1559.688477	6.078390
617.343445	970.467834	10580.856445	1552.555542	6.056859
617.680908	969.501892	10603.816406	1557.310913	6.101202
618.018311	971.433777	10588.434570	1554.932983	6.067372
618.355652	972.771179	10587.915039	1559.465454	6.101773
618.692993	980.127136	10559.903320	1557.310669	6.025021
619.030273	982.504883	10528.472656	1555.750488	6.005107
619.367554	985.476990	10440.794922	1553.001343	6.002171
619.704712	979.235535	10392.275391	1550.623413	6.070174
620.041870	959.471008	10363.520508	1556.716187	6.350936
620.379028	962.368835	10346.133789	1554.115601	6.306070
620.716064	967.124207	10324.585938	1557.087891	6.304740
621.053040	975.446106	10285.502930	1551.366577	6.186004
621.389954	972.474060	10259.050781	1553.149780	6.252850
621.726929	965.935364	10238.098633	1543.861938	6.232921
622.063843	967.124268	10231.039063	1544.010376	6.227239
622.400635	970.319275	10249.020508	1540.741211	6.147648
622.737427	979.904297	10263.956055	1539.552368	6.028059
623.074219	981.464600	10264.475586	1532.493652	5.935887
623.410889	975.891907	10284.537109	1532.939453	5.984196
623.747559	964.746521	10359.954102	1540.369629	6.126773
624.084167	973.514221	10431.655273	1555.007324	6.148070
624.420715	976.857849	10521.116211	1565.409668	6.166553
624.757324	983.990906	10573.351563	1575.812134	6.171645
625.093750	981.687500	10729.609375	1586.957520	6.209221
625.430176	982.950684	10909.793945	1597.508423	6.190867
625.766602	981.910461	11087.229492	1617.273071	6.287407
626.102905	974.777405	11282.051758	1629.384399	6.350923
626.439209	975.966248	11399.078125	1630.870483	6.283193
626.775452	976.337708	11497.456055	1629.681641	6.209834
627.111694	983.247864	11462.531250	1620.988159	6.085724
627.447876	980.350098	11412.674805	1616.678711	6.099586
627.783997	977.377991	11298.545898	1607.242188	6.102644
628.120056	975.669128	11187.239258	1598.697266	6.101198
628.456055	976.412109	11000.590820	1588.220703	6.103329
628.792053	975.223206	10821.670898	1576.332397	6.104833
629.128052	974.182922	10633.983398	1562.660522	6.092026
629.463928	973.291321	10506.256836	1556.047729	6.113065
629.799744	969.873352	10402.530273	1543.416138	6.080395
630.135559	964.077820	10292.264648	1538.437866	6.157253
630.471375	965.192322	10178.061523	1528.109741	6.110121
630.807068	973.439941	10075.299805	1525.137695	6.061374
631.142700	986.591492	9988.217773	1528.629883	6.021561
631.478333	986.442871	9902.249023	1529.001465	6.085356
631.813965	984.511047	9866.956055	1530.933228	6.151709
632.149475	976.189148	9833.593750	1523.205688	6.175811
632.484924	982.281982	9845.483398	1530.264648	6.182672
632.820435	985.105469	9815.686523	1521.868286	6.078454
633.155884	989.192078	9844.515625	1522.982910	6.027909
633.491150	988.672058	9885.901367	1517.038696	5.938552
633.826477	988.523438	9901.133789	1526.920898	6.040851
634.161804	978.641113	9861.829102	1528.258301	6.187162
634.497009	974.777344	9760.925781	1523.725952	6.247887
634.832153	971.953857	9667.824219	1517.112915	6.269172
635.167297	968.610291	9548.716797	1499.280273	6.184888
635.502380	964.969421	9444.098633	1492.518677	6.221739
635.837463	960.957031	9327.889648	1482.933594	6.238565
636.172424	970.616394	9256.261719	1492.295898	6.296184
636.507324	970.319153	9194.887695	1485.980103	6.269763
636.842224	972.325439	9150.083008	1478.252563	6.186624
637.177124	972.548340	9071.842773	1464.135132	6.069501
637.511963	979.607117	9001.180664	1458.710938	5.972691
637.846741	988.597656	8883.484375	1457.670898	5.941482
638.181396	983.396484	8786.221680	1451.355103	5.997297
638.516113	979.829895	8699.881836	1451.057983	6.103950
638.850769	976.783508	8659.387695	1449.571777	6.154011
639.185303	975.520447	8615.401367	1453.361328	6.254560
639.519836	978.566895	8572.156250	1454.178711	6.263333
639.854370	971.953918	8500.379883	1455.293091	6.420189
640.188843	977.155090	8430.461914	1449.125977	6.332369
640.523254	968.833191	8354.895508	1443.479004	6.426236
640.857605	971.730957	8328.889648	1433.373901	6.274745
641.191895	971.953857	8284.381836	1427.355347	6.227774
641.526184	983.545105	8258.672852	1424.531860	6.061567
641.860413	978.715515	8204.432617	1428.321167	6.222298
642.194580	969.056152	8188.605469	1431.070313	6.399487
642.528748	957.316223	8149.373535	1421.262329	6.450812
642.862793	965.861084	8109.324707	1413.609375	6.267944
643.196838	975.743347	8058.575684	1404.618652	6.055138
643.530823	976.189209	8006.118652	1411.974609	6.199001
643.864746	976.263489	7996.458984	1410.488647	6.185371
644.198669	980.795898	7983.902344	1414.946655	6.199402
644.532532	979.086975	7965.995605	1405.956055	6.109556
644.866333	973.885803	7969.412598	1401.869507	6.117962
645.200073	968.535950	7982.489746	1398.451538	6.129433
645.533813	976.412109	8016.297363	1402.984009	6.059359
645.867554	978.195313	7993.263672	1406.921997	6.111511
646.201172	978.121033	8013.400391	1409.671265	6.134088
646.534729	977.377930	8029.672363	1401.126465	6.008662
646.868225	977.452332	8067.937988	1405.138672	6.031834
647.201782	973.365662	8068.532715	1400.903687	6.025764
647.535217	974.628723	8066.229004	1410.637207	6.148239
647.868591	984.362488	8046.019043	1410.562866	6.035416
648.201965	988.300476	8012.062500	1413.089233	6.047881
648.535278	988.672058	7981.895996	1411.231567	6.042413
648.868591	986.814453	7980.187012	1403.578491	5.959414
649.201782	982.802063	7965.846191	1406.996216	6.074631
649.534912	984.808289	7960.645020	1418.810425	6.221506
649.868103	978.418213	7943.555176	1414.426392	6.259865
650.201172	981.316101	7972.607422	1409.671265	6.126982
650.534180	973.811462	7978.031250	1401.349243	6.104003
650.867188	970.244934	7975.728516	1405.138672	6.207905
651.200134	972.919861	7964.657715	1410.339966	6.256243
651.533020	970.467834	7969.189453	1405.138672	6.210718
651.865845	974.034363	7926.837402	1397.931519	6.096781
652.198608	969.576172	7884.558594	1391.095581	6.095741
652.531433	980.127136	7829.425781	1390.798340	5.995814
652.864136	985.922668	7796.510254	1399.937500	6.078989
653.196777	1119.370483	7878.243652	1525.434937	6.007872
653.529358	1124.051636	7847.704590	1533.979858	6.096808
653.861938	1105.550171	7826.974121	1535.465820	6.396199
654.194519	969.056091	7638.245605	1405.213257	6.539883
654.526978	958.282227	7578.431641	1395.330933	6.601795
654.859375	969.056152	7515.200684	1385.894409	6.367691
655.191833	973.811462	7520.773438	1382.179199	6.237515
655.524170	977.155090	7540.166504	1374.080078	6.047910
655.856445	977.080811	7563.868652	1374.600220	6.035102
656.188660	979.607117	7581.775879	1386.265991	6.159474
656.520874	978.641113	7599.236816	1392.284302	6.247824
656.853088	972.102539	7677.849121	1393.547485	6.284832
657.185181	971.062256	7721.538574	1393.547485	6.258599
657.517212	965.861084	7817.314941	1398.748657	6.318185
657.849243	973.960022	7942.663574	1406.253296	6.203353
658.181274	977.377930	8158.513184	1421.559570	6.185396
658.513123	983.396484	8347.539063	1433.522461	6.112401
658.844971	984.659668	8537.084961	1448.754517	6.144978
659.176819	985.922852	8664.811523	1450.686401	6.052485
659.508667	979.384094	8738.296875	1454.401489	6.122216
659.840393	983.470764	8711.918945	1454.104370	6.089626
660.172058	984.808289	8605.370117	1440.284058	5.976932
660.503662	995.953613	8446.436523	1430.253052	5.829145
660.835266	988.597656	8276.431641	1415.243774	5.854224
661.166931	983.693665	8090.006348	1409.671265	5.994355
661.498413	971.062195	7933.896484	1398.599976	6.140284
661.829773	972.251160	7746.950684	1378.315430	5.993834
662.161194	968.833191	7585.937012	1371.776733	6.089424
662.492615	977.377930	7422.099121	1363.454956	5.990593
662.823975	972.176758	7309.753418	1368.656128	6.256009
663.155212	968.164368	7221.556152	1360.185669	6.268939
663.486450	964.375000	7147.252441	1352.161011	6.271935
663.817627	973.960022	7067.749512	1345.399414	6.095376
664.148743	986.888733	6987.650879	1346.365234	5.990514
664.479858	979.235535	6925.683105	1349.263062	6.222665
664.810913	980.647278	6882.958496	1342.055664	6.123168
665.141907	975.371765	6871.292480	1337.300415	6.138628
665.472778	982.653503	6846.400879	1326.155029	5.858055
665.803711	977.006409	6817.794434	1326.526489	5.984125
666.134583	974.331543	6779.974609	1316.792847	5.898766
666.465454	974.257263	6769.646484	1319.690552	5.960485
666.796143	968.833191	6774.550781	1327.938232	6.185369
667.126831	970.467773	6793.274902	1338.117798	6.313965
667.457458	974.331543	6792.234375	1351.417969	6.481484
667.788147	975.371826	6806.352051	1355.207397	6.514094
668.118774	976.932129	6822.698730	1360.854370	6.567526
668.449219	977.526611	6839.862793	1359.813965	6.521076
668.779663	981.761902	6849.744629	1351.492188	6.300807
669.110107	980.647278	6833.546875	1352.903931	6.360209
669.440552	977.898010	6811.033691	1347.108398	6.329535
669.770874	974.108582	6764.371094	1343.541748	6.380249
670.101135	971.507996	6702.700684	1337.671875	6.388965
670.431396	965.712402	6673.647949	1330.464478	6.390263
670.761597	961.774414	6632.187012	1326.303589	6.428618
671.091797	964.969421	6616.806152	1317.090088	6.230199
671.421875	974.480164	6564.050781	1311.517212	6.029748
671.751892	986.888733	6540.496582	1316.272583	5.930989
672.081909	983.693665	6508.695313	1321.845337	6.120390
672.411865	987.408875	6479.346191	1327.492310	6.192413
672.741821	977.823914	6428.150879	1326.823730	6.403282
673.071716	979.012695	6423.173340	1314.638062	6.164869
673.401550	968.164490	6403.557129	1310.179932	6.292378
673.731262	970.839417	6388.919434	1308.768066	6.237055
674.060974	969.130432	6348.869629	1312.780518	6.387857
674.390625	972.251160	6319.148438	1309.734131	6.311753
674.720276	976.932190	6294.480469	1304.235718	6.155159
675.049927	977.229309	6264.313965	1298.217163	6.071169
675.379395	972.028137	6260.970215	1293.907593	6.085895
675.708923	968.090088	6236.078613	1286.551636	6.045221
676.038330	966.604004	6226.642578	1288.334839	6.116511
676.367737	973.439880	6203.088379	1290.712524	6.066806
676.697083	971.730896	6203.831543	1299.851807	6.271304
677.026428	975.669006	6196.475098	1299.554565	6.203746
677.355652	973.365662	6227.088379	1303.567017	6.285093
677.684875	972.622620	6262.457031	1301.412231	6.215499
678.013977	971.805359	6286.456543	1304.978638	6.268958
678.343079	968.610352	6325.835938	1303.566895	6.252426
678.672180	973.439941	6374.207031	1302.229492	6.087831
679.001221	971.359558	6455.048828	1308.842407	6.154303
679.330139	977.006531	6541.240234	1323.182861	6.221456
679.659058	979.607117	6645.264160	1336.111450	6.292374
679.987976	985.477051	6755.752441	1337.523315	6.101030
680.316772	981.390381	6776.631348	1325.040405	5.929866
680.645630	976.635010	6780.494629	1324.223145	5.988914
680.974304	972.102539	6740.891113	1323.703003	6.094875
681.302979	968.164551	6726.625000	1333.065063	6.336772
681.631653	965.935364	6690.662598	1332.916504	6.410457
681.960266	969.650574	6646.750000	1332.693604	6.394868
682.288757	980.498718	6601.202637	1327.715332	6.177458
682.617249	986.888733	6514.342285	1333.139526	6.264201
682.945679	986.665833	6415.965332	1329.127075	6.307651
683.274109	979.309875	6309.638184	1328.681274	6.554407
683.602478	977.080811	6207.472656	1307.133423	6.310285
683.930725	972.548340	6131.609375	1292.941528	6.210300
684.259033	978.492493	6049.728027	1284.619629	6.036540
684.587280	975.074524	5996.080566	1283.802368	6.148725
684.915344	979.458496	5919.028809	1289.077881	6.268144
685.243469	982.504883	5867.537109	1283.059326	6.152558
685.571533	986.591492	5808.169434	1281.944824	6.125657
685.899536	982.207703	5783.798340	1276.149292	6.121754
686.227539	976.040527	5768.566406	1280.979004	6.362792
686.555420	980.498718	5795.835449	1286.328735	6.351165
686.883301	986.071289	5829.717285	1289.895386	6.272632
687.211121	989.117737	5850.225098	1282.167847	6.028464
687.538940	978.789734	5865.011230	1276.223633	6.087196
687.866638	971.433777	5874.373535	1280.161499	6.296788
688.194336	969.130371	5871.697754	1294.353394	6.633729
688.521973	970.021973	5847.104004	1300.817627	6.782655
688.849609	969.204590	5793.754395	1300.000366	6.856511
689.177063	967.867188	5736.689941	1280.458740	6.554900
689.504578	977.972473	5654.288574	1263.814941	6.112557
689.832031	981.687561	5592.021973	1245.982422	5.732661
690.159485	982.802063	5536.890137	1239.963745	5.646832
690.486816	981.836121	5498.252441	1240.261108	5.721903
690.814087	991.049622	5439.107910	1238.477783	5.562611
691.141296	991.718445	5379.294434	1238.923584	5.634207
691.468506	983.247864	5325.870605	1228.372559	5.644624
691.795715	970.319275	5275.567383	1232.830688	6.097475
692.122803	968.981750	5220.657715	1232.979370	6.209260
692.449829	973.811462	5179.122559	1234.168091	6.191138
692.776855	983.024963	5131.345703	1232.161987	6.005732
693.103821	981.613281	5101.550293	1232.310669	6.084981
693.430664	978.343933	5063.804688	1230.898804	6.181797
693.757568	974.183044	5056.671387	1227.258057	6.199039
694.084351	975.000305	5032.895020	1226.737915	6.203650
694.411133	973.885742	5030.739746	1235.877319	6.457999
694.737854	970.987976	5013.649902	1232.161987	6.460447
695.064575	978.566895	5030.294434	1230.601563	6.220425
695.391174	985.105469	5037.427246	1225.549194	5.933481
695.717773	983.322266	5072.275391	1230.675903	6.049314
696.044250	976.040527	5114.776855	1225.028931	6.016049
696.370789	968.684570	5181.648926	1232.087646	6.252203
696.697205	975.297546	5246.663574	1240.558105	6.210204
697.023621	970.839355	5358.043457	1258.539429	6.557709
697.349915	968.387390	5500.110840	1269.684814	6.648627
697.676208	963.706299	5692.033691	1281.424683	6.719467
698.002380	969.056091	5878.459473	1291.827026	6.574545
698.328674	972.994141	6063.622559	1291.604126	6.258756
698.654724	975.297546	6213.119141	1301.783691	6.233243
698.980896	978.641174	6327.248047	1306.836304	6.136086
699.306946	988.003357	6340.770996	1319.839233	6.199333
699.632935	992.164246	6281.403809	1310.031372	6.009694
699.958862	991.272644	6152.636719	1305.498901	6.088047
700.284729	983.545105	5994.223145	1289.598022	6.108014
700.610596	983.619385	5815.525391	1278.378296	6.100261
700.936340	979.235596	5616.914063	1262.700439	6.112214
701.262146	982.281982	5428.036621	1251.406494	6.053517
701.587830	978.418213	5257.437500	1241.078491	6.138329
701.913513	979.681335	5101.179199	1229.635864	6.064652
702.239075	977.080750	4981.923340	1221.685303	6.107719
702.564697	971.805237	4876.339355	1216.632690	6.270337
702.890137	971.433777	4785.689941	1221.313721	6.551210
703.215698	976.486328	4723.498535	1217.004272	6.418926
703.541016	979.532776	4653.133301	1211.654297	6.318638
703.866455	979.384216	4606.322754	1200.434692	6.094685
704.191711	972.251160	4546.360840	1194.119019	6.207640
704.517029	970.839355	4505.048340	1197.982788	6.426995
704.842163	966.529785	4467.673828	1199.468872	6.653228
705.167419	965.266663	4449.098145	1199.097290	6.711881
705.492493	968.684570	4427.625000	1193.747559	6.506703
705.817566	975.594727	4410.832520	1184.013794	6.067093
706.142578	979.607117	4389.358887	1183.791016	5.988234
706.467590	982.504883	4407.488770	1179.332886	5.746830
706.792480	975.520447	4403.327637	1182.973633	6.052067
707.117371	973.811523	4415.067871	1186.911621	6.192509
707.442200	966.975586	4392.925781	1186.391602	6.404530
707.766907	968.535950	4397.160645	1194.119141	6.579407
708.091675	961.774414	4400.355957	1194.936401	6.780761
708.416321	964.672180	4433.643066	1200.954956	6.811322
708.741028	968.981750	4486.026855	1201.029175	6.597795
709.065552	975.223206	4508.614746	1197.462524	6.289688
709.390137	975.743347	4517.902832	1191.741333	6.097918
709.714600	979.161316	4505.271484	1187.506226	5.908633
710.039063	985.179749	4536.924316	1190.701172	5.786492
710.363403	985.031250	4589.530762	1197.834106	5.903811
710.687744	983.247864	4658.334961	1207.121948	6.091667
711.012085	982.059082	4718.594727	1211.060059	6.128698
711.336304	987.334473	4741.256836	1214.998169	6.064689
711.660461	983.619385	4742.371582	1211.060059	6.050962
711.984619	981.836121	4721.120605	1208.013794	6.048689
712.308716	983.470764	4698.606934	1196.645386	5.738003
712.632751	982.802063	4660.043457	1192.410034	5.700141
712.956726	989.043640	4611.227051	1195.976563	5.712934
713.280701	987.854736	4557.877441	1196.571045	5.846358
713.604553	995.433594	4505.122559	1192.632935	5.618713
713.928467	985.328369	4453.259277	1186.985962	5.814925
714.252258	979.829895	4430.076660	1187.357422	6.014860
714.575989	973.885742	4421.531738	1180.744507	6.000000
714.899719	972.845520	4420.194824	1179.852783	6.004824
715.223267	972.994141	4417.074219	1184.459595	6.139969
715.546936	975.074646	4428.591309	1196.570923	6.413644
715.870422	977.377991	4434.386230	1197.388306	6.364182
716.193970	975.966248	4407.711426	1190.626831	6.255144
716.517395	977.155090	4365.062012	1186.168579	6.169399
716.840820	979.235596	4316.170410	1185.574219	6.183478
717.164124	975.743347	4279.687988	1192.855835	6.571311
717.487488	968.907471	4234.958008	1188.694946	6.729457
717.810730	964.820801	4178.859375	1190.255249	7.014055
718.133972	966.975586	4112.581543	1178.515503	6.724934
718.457092	965.712463	4046.823486	1169.747681	6.622131
718.780212	964.300781	4000.161377	1161.277222	6.488323
719.103210	970.170654	3940.421875	1155.704468	6.246401
719.426208	979.458496	3896.360352	1154.515747	6.001479
719.749207	983.099304	3826.292969	1155.258667	6.055140
720.072083	981.241699	3796.051514	1152.658081	6.089803
720.394958	970.913635	3760.683350	1148.199951	6.354873
720.717773	977.526672	3740.175781	1137.871948	5.804040
721.040527	973.811462	3705.179443	1139.283691	6.058218
721.363281	980.572998	3673.377930	1147.828491	6.211200
721.685913	981.241699	3661.043701	1142.701538	6.025066
722.008545	987.854675	3653.539063	1144.707642	5.884154
722.331055	985.551331	3643.210938	1139.878052	5.806866
722.653503	977.080750	3627.012939	1146.416748	6.390202
722.976013	975.000244	3616.164795	1148.051392	6.552077
723.298401	978.864075	3601.972900	1148.125610	6.452707
723.620789	984.733948	3600.709961	1147.308228	6.214670
723.943115	980.127197	3592.833984	1138.912109	6.077410
724.265381	975.817627	3593.131104	1145.376343	6.478350
724.587585	977.749512	3582.580078	1147.754028	6.526510
724.909790	972.919739	3586.740967	1153.921265	6.924786
725.231873	978.418213	3590.827393	1145.525146	6.396660
725.553894	969.724792	3604.424805	1147.159790	6.734543
725.875916	1018.095886	3652.201904	1185.499878	6.355249
726.197937	1016.015442	3677.613281	1187.357422	6.437561
726.519775	1021.513855	3687.124023	1175.617676	5.781184
726.841675	983.619446	3669.811523	1134.676880	5.623478
727.163513	979.309875	3681.848389	1132.373413	5.663695
727.485291	981.316101	3710.975342	1132.967896	5.555705
727.806946	976.560730	3738.615479	1134.528320	5.719206
728.128662	986.591553	3749.166748	1133.042114	5.301233
728.450256	980.647278	3772.720703	1144.336304	5.862633
728.771790	976.189148	3761.798096	1155.555908	6.439050
729.093323	963.706299	3763.061279	1158.007813	6.940939
729.414795	956.498962	3739.135986	1151.692261	7.014688
729.736145	960.511230	3740.101563	1141.364136	6.506459
730.057495	962.666077	3736.089111	1144.707642	6.563787
730.378845	975.223206	3751.990234	1158.527954	6.601373
730.700134	984.436707	3758.380127	1158.230835	6.265237
731.021301	990.083740	3798.429443	1155.258667	5.881574
731.342468	986.963074	3822.726563	1152.658081	5.843048
731.663574	985.328430	3848.212158	1163.283325	6.215931
731.984680	985.179871	3845.165771	1164.918091	6.284584
732.305664	986.963074	3834.168945	1153.252563	5.840445
732.626648	984.659607	3837.661377	1143.518921	5.568147
732.947571	988.151855	3830.156494	1144.633423	5.506028
733.268433	988.151855	3814.701904	1152.360840	5.809520
733.589233	989.117859	3790.776123	1155.481567	5.938045
733.909973	981.538879	3747.606445	1156.373169	6.320680
734.230713	973.811462	3727.544678	1153.698242	6.532470
734.551331	966.083984	3667.805420	1151.394897	6.858994
734.871948	967.124207	3628.350586	1148.720093	6.823767
735.192505	969.353333	3556.796875	1135.568481	6.423914
735.513062	970.022034	3516.524658	1132.670654	6.387137
735.833435	971.359558	3467.261963	1127.097900	6.239761
736.153931	964.449402	3435.534912	1134.082397	6.864716
736.474304	970.170715	3405.145264	1129.921509	6.560676
736.794617	973.737244	3379.138916	1134.082397	6.666045
737.114807	980.795898	3373.938232	1135.271362	6.454922
737.434998	978.046692	3382.259766	1128.955566	6.276851
737.755188	975.743347	3412.872314	1130.961792	6.368906
738.075256	980.498779	3421.045898	1133.636597	6.274733
738.395325	977.600891	3437.541016	1143.147461	6.729699
738.715271	978.789734	3463.696045	1137.500366	6.386987
739.035278	975.223206	3493.565186	1136.162964	6.390703
739.355164	972.176819	3512.661133	1137.648926	6.513408
739.675049	973.068542	3503.076172	1143.444458	6.734206
739.994873	973.365723	3498.915283	1139.952271	6.596051
740.314636	982.504883	3453.144775	1134.305298	6.144174
740.634277	981.761902	3420.749023	1124.348755	5.846150
740.953979	986.220032	3367.176758	1125.314819	5.841970
741.273499	990.603821	3344.440186	1121.673950	5.568362
741.593140	991.123962	3301.715820	1123.382813	5.724025
741.912598	986.071350	3265.678711	1120.633667	5.902873
742.232117	979.830017	3220.725586	1122.342651	6.359629
742.551453	970.987976	3190.187500	1112.014526	6.354839
742.870850	975.891907	3160.094727	1112.980469	6.276366
743.190063	971.210938	3143.673828	1105.624390	6.187146
743.509338	971.805359	3120.788818	1109.859741	6.424171
743.828552	963.557678	3097.828857	1098.045532	6.301348
744.147705	964.820801	3072.120117	1102.578125	6.537150
744.466797	967.867249	3062.163330	1105.253052	6.559999
744.785828	972.474060	3057.631104	1109.191040	6.556675
745.104858	975.817688	3037.495361	1105.698853	6.299780
745.423706	974.628845	3023.451904	1094.850586	5.867844
745.742615	969.947754	2999.452393	1093.587524	6.092116
746.061401	964.077820	3005.024658	1092.844604	6.309169
746.380249	966.009705	3002.126953	1100.720581	6.616067
746.698975	973.217041	3000.417969	1098.640137	6.187008
747.017639	969.576172	2984.071533	1094.033325	6.178081
747.336304	970.616394	2969.433838	1099.160278	6.430997
747.654907	959.842529	2964.083984	1105.030151	7.244019
747.973389	971.433777	2971.440186	1107.482056	6.802392
748.291931	968.313049	2968.096436	1104.584229	6.814297
748.610352	976.560730	2978.350342	1101.017700	6.217286
748.928711	973.811523	2986.375000	1100.200439	6.279996
749.247070	980.795959	2986.597900	1094.330444	5.660304
749.565308	975.594727	2983.774414	1091.655640	5.779409
749.883545	972.771240	2975.303955	1096.931030	6.200138
750.201782	966.975586	2971.588867	1097.971313	6.534713
750.519836	974.405945	2960.294922	1108.893677	6.772168
750.837952	978.418274	2959.106201	1108.819458	6.583631
751.155884	980.647400	2953.458984	1109.562500	6.534588
751.473877	991.792786	2956.282471	1095.444946	5.276289
751.791809	991.049744	2931.093750	1087.791870	4.986595
752.109619	991.272644	2927.230225	1085.042603	4.843596
752.427490	980.052917	2913.707031	1095.816528	5.986780
752.745300	978.343933	2931.762451	1097.079712	6.078359
753.062988	978.789734	2933.917236	1104.064087	6.407477
753.380615	978.343933	2918.090576	1098.194214	6.178657
753.698303	982.802063	2895.874268	1100.869263	6.171602
754.015808	984.808289	2894.239502	1093.810425	5.708618
754.333374	983.396545	2906.871094	1091.804199	5.636033
754.650757	986.665833	2906.127930	1087.048828	5.229746
754.968262	979.607117	2902.264404	1089.649414	5.723449
755.285583	977.229309	2890.524170	1090.541016	5.922334
755.602905	967.049988	2898.251953	1096.782593	6.717713
755.920105	969.576172	2893.496338	1097.005371	6.623414
756.237305	964.969482	2903.675781	1097.302612	6.825847
756.554443	970.393555	2894.239502	1098.640015	6.666150
756.871582	977.600891	2887.923828	1096.559448	6.227144
757.188599	982.356262	2898.772217	1098.119873	6.040630
757.505615	984.213806	2929.310547	1094.702026	5.680346
757.822510	977.080811	2961.037842	1096.485229	6.018498
758.139465	979.384094	2982.510986	1096.559570	5.849628
758.456238	972.251160	2997.000244	1103.989746	6.506415
758.773010	968.015869	3022.708984	1103.023926	6.570716
759.089783	964.672180	3046.337158	1104.658569	6.724732
759.406433	965.118103	3055.402344	1097.674194	6.341535
759.723145	971.656677	3041.433594	1103.023926	6.346928
760.039673	980.721619	3031.253906	1109.859741	6.297786
760.356201	985.254089	3030.362061	1118.255981	6.503417
760.672668	986.294250	3049.235107	1115.580933	6.267106
760.989136	981.836121	3042.399170	1107.333374	6.090435
761.305481	981.613220	3048.640625	1102.206543	5.834143
761.621826	983.099304	3054.436279	1104.658569	5.868638
761.938049	986.814453	3078.956299	1108.225098	5.803174
762.254333	989.786621	3109.865967	1114.317993	5.873901
762.570496	989.638000	3184.540283	1124.423218	6.140830
762.886597	986.591553	3322.000244	1128.807007	6.089532
763.202637	987.408936	3517.416260	1141.884155	6.105722
763.518677	988.226257	3732.671631	1145.450562	5.728819
763.834656	988.746277	3938.861328	1166.552612	6.027099
764.150574	984.436768	4074.315186	1164.546509	5.829023
764.466370	980.573059	4121.869141	1169.153320	6.003263
764.782288	980.498779	4053.659424	1160.980103	5.872824
765.097961	977.972412	3932.546143	1156.744751	6.050698
765.413696	980.721680	3742.553955	1137.946167	5.692760
765.729309	977.080872	3578.642334	1122.714111	5.597917
766.044861	978.715515	3409.231689	1112.980469	5.524134
766.360474	973.291321	3273.629150	1112.608887	6.056396
766.675903	970.765076	3169.085205	1104.658569	6.090719
766.991394	970.690735	3088.838135	1099.754517	6.093239
767.306763	972.548340	3039.204346	1095.667969	5.957432
767.622131	981.538879	2978.647705	1098.194214	5.841210
767.937378	982.950684	2933.397217	1097.822632	5.889521
768.252625	984.585388	2897.063232	1098.862915	5.975365
768.567810	972.399719	2866.747803	1099.308716	6.699349
768.882996	966.083984	2823.280518	1092.398560	6.801357
769.197998	959.693909	2784.568604	1086.454224	6.946248
769.513062	965.117981	2741.399170	1083.705078	6.676144
769.828064	968.015808	2724.829346	1076.052002	6.149554
770.142944	973.588562	2695.851318	1075.828979	5.936401
770.457825	975.891907	2675.046631	1073.822876	5.763511
770.772705	977.377930	2655.727783	1081.773315	6.220120
771.087402	976.486328	2656.470947	1081.178955	6.231761
771.402100	970.096375	2651.418213	1072.485474	6.089798
771.716736	974.034424	2644.359375	1078.355347	6.245546
772.031372	973.662842	2614.787354	1083.185059	6.673608
772.345947	976.337708	2593.685303	1087.494629	6.872791
772.660461	976.783508	2572.286133	1078.429688	6.370793
772.974854	978.566833	2569.982666	1074.343140	6.018308
773.289246	980.647278	2567.530518	1066.838501	5.431479
773.603638	976.783508	2551.258057	1059.556763	5.257198
773.917908	974.480164	2538.775391	1056.956177	5.272408
774.232178	974.777344	2523.171631	1065.203735	5.840011
774.546265	971.210876	2506.750732	1072.336792	6.585691
774.860474	974.628845	2480.447754	1066.466919	6.098879
775.174561	978.269592	2465.364258	1064.683716	5.810936
775.488586	978.864014	2448.497559	1062.826050	5.713127
775.802551	980.870178	2442.850586	1070.033447	6.098800
776.116516	979.607117	2425.760742	1071.222290	6.335093
776.430359	983.247864	2427.692871	1079.767090	6.682097
776.744202	981.984802	2413.352295	1068.473145	6.042358
777.057922	972.994141	2412.312256	1064.237793	6.339366
777.371704	973.291321	2395.593994	1058.293701	5.976391
777.685303	970.393555	2395.668457	1065.352417	6.662495
777.998962	973.960144	2399.680664	1065.946899	6.451949
778.312500	969.130371	2417.661865	1059.779785	6.258022
778.626038	966.752747	2421.005615	1053.315430	5.952382
778.939453	965.861023	2413.649414	1053.018188	6.020021
779.252869	973.588562	2402.727051	1062.083130	6.192162
779.566223	975.223206	2391.507324	1064.163574	6.279839
779.879578	986.294373	2382.145264	1069.513306	5.961879
780.192749	990.752502	2384.151367	1059.333862	4.921875
780.505920	994.170410	2400.646729	1064.312134	4.987053
780.819031	987.483093	2412.386475	1054.652832	4.713986
781.132141	980.127136	2398.789063	1065.055176	5.986489
781.445190	974.851746	2375.160889	1071.296753	6.887409
781.758118	976.486389	2365.798584	1073.154175	6.957960
782.071045	974.480286	2353.092773	1071.668091	7.049682
782.383911	980.498779	2340.758545	1062.751831	6.046864
782.696838	982.579163	2311.854736	1068.473145	6.461713
783.009583	983.619385	2294.393555	1062.528931	6.020072
783.322266	979.384094	2281.836670	1057.476440	5.995791
783.634888	974.182922	2268.759277	1050.417480	5.888765
783.947510	979.012695	2258.579834	1055.692993	5.992675
784.260132	982.207703	2253.378662	1064.980957	6.511576
784.572571	979.830017	2253.972900	1062.083008	6.455555
784.885010	972.548340	2252.115479	1056.287476	6.544333
785.197449	972.176758	2246.171143	1049.526001	6.071396
785.509766	979.829895	2233.465332	1047.296875	5.381706
785.822083	985.254089	2230.864990	1046.999634	4.957049
786.134277	981.984680	2222.320068	1052.275024	5.667043
786.446533	979.309814	2229.156006	1065.649658	6.908038
786.758606	978.641113	2234.728760	1064.163574	6.808638
787.070740	983.990967	2227.818604	1062.826172	6.338113
787.382690	978.938293	2224.103271	1058.665161	6.402915
787.694641	974.257324	2238.295166	1055.915894	6.460136
788.006653	967.718567	2289.341064	1046.330933	5.948171
788.318481	974.405945	2347.743164	1049.451538	5.464470
788.630310	968.238770	2387.718018	1061.414307	6.564065
788.942017	969.947754	2404.213135	1071.445190	7.076615
789.253784	969.724792	2399.977783	1060.002563	6.312015
789.565430	977.526611	2388.014893	1052.572388	5.320553
789.877014	970.319275	2372.634277	1058.590820	6.294702
790.188538	967.049988	2338.157959	1073.228516	7.743995
790.500061	966.604065	2298.257324	1076.349243	8.241273
790.811462	981.836182	2252.338135	1061.711548	6.286914
791.122925	980.275818	2222.988525	1048.039795	5.452908
791.434204	976.634949	2201.143555	1040.981079	5.254854
791.745483	968.833191	2188.958008	1046.999634	6.406430
792.056702	975.446106	2175.732178	1052.497925	6.419454
792.367920	978.195313	2159.831299	1055.395874	6.533362
792.678955	973.885742	2142.593018	1052.200806	6.700999
792.990112	971.359436	2134.717041	1048.634399	6.642408
793.301086	972.399658	2133.751221	1045.885010	6.327571
793.612122	975.891907	2129.739014	1047.073853	6.169096
793.922974	971.730957	2125.057861	1050.046021	6.790361
794.233826	973.588623	2128.698486	1054.801392	7.030740
794.544556	977.675110	2141.552979	1055.172974	6.658590
794.855286	980.275696	2143.707764	1048.634277	5.875597
795.166016	981.018799	2146.531250	1040.089478	5.068215
795.476624	976.634949	2151.063721	1041.501343	5.523230
795.787292	973.885742	2165.255615	1042.541504	5.762758
796.097778	969.501953	2176.178223	1048.560059	6.551724
796.408264	967.124207	2214.221191	1050.268921	6.667061
796.718689	972.102539	2236.809082	1056.361694	6.662348
797.029053	984.139465	2257.019287	1061.265625	6.059186
797.339355	986.517273	2251.595459	1053.018066	5.256655
797.649658	984.362488	2238.740967	1049.302979	5.177105
797.959839	975.074646	2216.970459	1040.312378	5.253077
798.270020	981.018799	2192.376221	1040.312378	4.894804
798.580078	978.195374	2183.088135	1042.987305	5.377402
798.890137	974.331604	2175.880859	1048.039917	6.134439
799.200195	968.981750	2156.116211	1053.389648	7.110222
799.510071	969.130371	2132.785400	1047.965454	6.774781
799.820007	967.198486	2118.296143	1042.392700	6.532392
800.129883	967.941589	2100.389160	1041.501343	6.495644
800.439575	970.319153	2086.345947	1043.878906	6.591217
800.749329	977.675232	2071.039795	1037.711792	5.490992
801.058960	975.223206	2067.919189	1030.504395	5.059155
801.368591	977.006409	2059.448486	1028.201050	4.729550
801.678162	975.743347	2054.469971	1023.520020	4.428988
801.987671	980.498718	2039.981079	1027.680908	4.453324
802.297119	975.594727	2043.101929	1023.891418	4.524250
802.606506	978.418152	2030.916382	1033.030640	5.188843
802.915894	975.668945	2029.950317	1029.761353	5.130737
803.225159	976.263428	2020.291016	1031.990479	5.337699
803.534424	968.164490	2013.232300	1031.544556	6.064684
803.843628	967.644348	2015.461304	1032.436401	6.183528
804.152771	970.690735	2008.253906	1035.928467	6.287591
804.461792	975.594666	2014.718262	1037.340332	5.942091
804.770874	980.647278	2014.346680	1045.142090	6.239223
805.079773	985.179688	2022.743164	1040.089478	5.292186
805.388733	989.637939	2021.776978	1045.959473	5.456778
805.697571	986.220032	2022.000000	1040.089478	5.200858
806.006470	978.195313	2033.591187	1043.433105	6.181357
806.315125	974.851746	2043.622070	1041.203979	6.208279
806.623901	979.235535	2061.380615	1043.210205	5.911839
806.932495	987.111633	2056.104980	1044.250488	5.345108
807.241150	986.517273	2050.755127	1042.838745	5.292189
807.549622	979.235535	2028.167114	1042.244263	6.006943
807.858154	971.805359	2015.461304	1043.358765	6.856033
808.166565	966.678406	2005.207520	1033.922363	6.474923
808.474915	971.879578	1993.987793	1041.278198	6.789753
808.783264	974.331543	1984.254272	1038.083252	6.312533
809.091492	977.898132	1972.663086	1049.823120	7.230350
809.399719	974.554443	1973.851929	1039.866577	6.535805
809.707825	977.526611	1959.808594	1039.049194	6.263230
810.015930	977.898132	1943.536255	1036.597290	6.078794
810.323975	981.167419	1927.189453	1037.786011	5.984912
810.632080	978.269531	1923.846069	1036.671509	6.176335
810.939880	983.247864	1925.703613	1035.482788	5.542427
811.247864	982.207703	1919.462280	1027.235229	4.804194
811.555664	979.012695	1919.313599	1026.863647	5.088898
811.863464	972.919861	1912.031860	1027.681030	5.831165
812.171143	976.114807	1908.093872	1031.544678	5.947545
812.478882	978.492493	1901.703735	1037.117310	6.350098
812.786438	976.783630	1901.778320	1030.207153	5.775549
813.094055	973.960144	1880.899048	1030.727417	6.259217
813.401489	975.743347	1867.524536	1026.343384	5.674042
813.708984	981.538879	1856.602051	1023.891418	4.839941
814.016357	989.489258	1873.691772	1026.937866	4.235298
814.323730	986.517273	1880.453247	1026.120605	4.430220
814.630981	990.678162	1875.326538	1029.538574	4.392752
814.938232	981.836182	1865.964233	1027.383789	5.151698
815.245361	981.316101	1862.174805	1031.173218	5.660058
815.552490	978.938416	1858.905396	1037.265991	6.628382
815.859619	977.675293	1865.964355	1037.711792	6.758667
816.166565	980.721619	1870.719727	1036.077148	6.219736
816.473572	975.520325	1881.716431	1032.436279	6.280755
816.780457	975.371765	1877.927124	1033.550903	6.446046
817.087341	976.932129	1881.270630	1030.132935	5.882842
817.394043	974.628723	1888.403687	1025.526123	5.570014
817.700806	976.337708	1899.994995	1026.789429	5.462169
818.007507	972.251160	1904.750366	1023.520020	5.498006
818.314209	975.966248	1904.081543	1032.510742	6.092400
818.620667	971.062256	1916.415894	1035.259888	6.790859
818.927246	974.331604	1936.477539	1042.690063	7.104791
819.233704	976.114929	1976.229492	1040.163818	6.404155
819.540161	970.319275	2020.365234	1048.634399	7.458257
819.846497	974.628845	2074.011719	1055.172974	7.326304
820.152832	973.960022	2150.320801	1057.476318	7.099547
820.458984	983.024902	2238.964111	1058.962402	6.046272
820.765259	976.114746	2352.869873	1056.138916	5.812520
821.071350	977.377930	2453.995850	1062.900513	5.791788
821.377502	985.848450	2632.768311	1064.683716	4.786830
821.683472	987.557434	2994.102539	1087.494629	4.980560
821.989441	987.111633	3688.089844	1127.469482	5.196556
822.295349	985.922852	4808.203613	1199.617554	5.590764
822.601196	991.272644	6238.531250	1284.545410	5.589066
822.907043	986.442932	7583.929688	1366.947144	5.767412
823.212769	977.898132	8389.594727	1410.859985	5.841602
823.518494	976.486328	8365.371094	1413.980835	5.920981
823.824097	976.040527	7673.093262	1373.411499	5.933520
824.129700	975.743347	6619.927246	1305.498779	5.842393
824.435242	975.743347	5585.187500	1250.291870	5.956217
824.740723	981.167480	4721.640625	1194.044800	5.691187
825.046082	983.099304	4073.275391	1166.552612	5.936662
825.351501	978.641113	3601.453125	1131.110352	5.813197
825.656799	971.508118	3291.461914	1117.587280	6.296641
825.962036	972.399719	3101.544189	1100.274780	6.005936
826.267212	975.891907	3004.876221	1096.782349	5.958175
826.572449	975.743347	3017.730713	1102.429443	6.204059
826.877502	969.353271	3157.122803	1114.763672	6.646513
827.182495	962.814636	3440.216064	1137.946167	7.069162
827.487488	965.638184	3799.989990	1151.097656	6.543276
827.792419	974.480164	4104.407715	1169.078979	6.217359
828.097290	977.823730	4204.791016	1167.370117	5.873824
828.402100	977.006409	4059.974854	1160.905640	5.965005
828.706848	976.114929	3729.253662	1140.769653	5.980618
829.011597	977.749512	3335.077881	1121.599487	6.102246
829.316223	979.904297	2958.808594	1105.401489	6.341752
829.620789	982.207703	2657.733887	1086.974487	6.252769
829.925354	979.755676	2429.253174	1070.627808	6.269216
830.229797	986.071350	2268.536377	1054.950073	5.370807
830.534302	982.504883	2141.255615	1046.182373	5.495357
830.838562	988.151855	2055.658936	1040.981201	4.948852
831.142944	985.105469	1997.851563	1041.649902	5.583278
831.447144	988.374756	1958.322632	1040.015137	5.324037
831.751404	981.464600	1934.545532	1033.402222	5.449445
832.055542	981.613220	1916.118530	1031.544678	5.343090
832.359619	983.842285	1922.285645	1035.408325	5.494848
832.663635	981.315979	1950.372192	1041.724121	6.233709
832.967651	984.659668	1998.743164	1039.420776	5.400059
833.271545	982.653503	2096.674316	1041.798462	5.309144
833.575439	989.192078	2255.310547	1043.878906	4.319251
833.879211	983.099304	2501.252441	1070.107788	5.731206
834.183044	981.538879	2754.921875	1086.602905	5.924497
834.486694	980.647278	2947.663086	1110.305542	6.591623
834.790344	985.254089	3001.681396	1104.286987	5.903159
835.093933	980.795898	2927.898682	1096.633911	5.949250
835.397522	982.059082	2755.887939	1080.287231	5.537634
835.700928	976.411926	2560.694580	1065.798218	5.642067
836.004395	979.755676	2366.393311	1052.720825	5.262020
836.307739	973.811462	2211.546143	1038.752075	5.246732
836.611023	969.427673	2083.374023	1039.792358	6.316704
836.914307	963.260437	1981.876465	1037.488892	7.287187
837.217529	966.306824	1899.548950	1041.947144	8.105112
837.520691	964.226379	1824.131836	1032.064819	7.889058
837.823730	959.916809	1776.652344	1031.916138	8.815501
838.126831	960.065430	1728.281250	1027.458008	8.772610
838.429749	966.604065	1692.170288	1026.194824	8.213000
838.732727	978.715393	1652.343872	1022.777039	6.540942
839.035522	984.065247	1626.189453	1020.622253	5.693136
839.338379	982.207581	1626.932251	1021.439514	6.085068
839.641113	977.229309	1637.111816	1020.102051	6.497026
839.943848	972.473938	1682.213501	1023.742859	7.223625
840.246460	979.161194	1730.733276	1031.916138	7.019279
840.549072	983.693787	1796.565430	1033.773804	6.160876
840.851563	982.207703	1827.104004	1030.207275	5.681120
841.154053	980.201599	1841.815918	1021.736816	4.820628
841.456482	983.693787	1816.107056	1019.953430	4.355967
841.758850	978.789795	1768.924805	1018.541687	5.031025
842.061157	978.492493	1700.120605	1014.900879	5.045311
842.363403	969.130371	1645.136719	1013.266113	6.528894
842.665588	975.297546	1598.103027	1007.099060	5.106171
842.967712	971.210938	1553.818481	1008.585144	6.414989
843.269775	968.238770	1522.611328	1004.275574	6.500467
843.571777	965.861084	1508.493774	1010.888489	8.297953
843.873840	972.325378	1497.720093	1004.498535	6.123616
844.175659	977.898132	1482.339233	1007.321960	5.832956
844.477600	976.040527	1468.741821	1000.486084	4.961537
844.779297	971.582458	1465.621094	1004.721375	6.707758
845.081116	975.817688	1457.596558	1004.870056	6.030229
845.382751	981.316101	1449.200195	1000.411804	4.081289
845.684387	985.254089	1439.763794	1001.229187	3.514798
845.985962	981.761902	1424.011719	996.993896	3.444206
846.287537	975.371887	1413.683594	1004.052673	6.543468
846.588989	970.170654	1400.234741	1001.823547	7.360041
846.890381	964.077820	1397.857056	1003.309631	9.044188
847.191711	972.399658	1387.231812	997.811279	6.125760
847.493042	969.724792	1379.875977	998.479980	7.010875
847.794250	975.594788	1369.696289	990.529602	3.789586
848.095459	978.046692	1368.879028	991.569824	3.460085
848.396606	980.870300	1365.461060	984.733948	1.004613
848.697693	986.294373	1362.711914	992.461426	1.638354
848.998657	979.458496	1357.807983	994.244629	3.908062
849.299622	988.969238	1356.544800	994.244629	1.435185
849.600464	987.483154	1353.201172	988.077637	0.162552
849.901367	995.804993	1345.845093	979.681396	-4.606214
850.202087	989.340637	1343.170288	988.746277	-0.167979
850.502808	979.978516	1349.857544	988.300476	2.249914
850.803467	973.216980	1344.136230	991.718445	4.988003
851.104065	977.600891	1338.637817	992.758606	4.198383
851.404663	986.294250	1332.990723	999.668762	3.857701
851.705139	981.018738	1339.157837	1002.863831	6.099611
852.005615	975.223145	1336.037231	990.752441	4.303961
852.306030	970.542175	1329.349976	987.780334	4.804288
852.606384	972.251038	1328.161133	990.975342	5.260964
852.906616	973.365662	1327.120972	1003.086731	8.401589
853.206909	974.257324	1326.749390	999.966003	7.293406
853.506958	972.696960	1320.953735	1001.674988	8.320880
853.807129	972.176758	1316.272705	1004.349854	9.350037
854.107178	972.102539	1310.551392	1005.984558	10.010972
854.407166	978.715515	1306.316040	1004.498596	7.870281
854.707092	973.217102	1304.829956	984.882629	3.517815
855.007019	971.582336	1311.368652	983.396484	3.476935
855.306763	972.399719	1313.969238	979.458496	2.066571
855.606567	971.730957	1307.579224	992.981628	6.327462
855.906250	974.480164	1299.851685	1000.857666	8.106887
856.205933	968.090149	1288.632202	1004.349915	11.312016
856.505493	973.514221	1294.576294	1002.269470	8.956289
856.805054	975.000305	1289.152344	1002.269470	8.680244
857.104492	978.418213	1293.313110	1003.532532	7.975461
857.403931	984.585266	1290.043823	1004.349915	6.470484
857.703308	978.121033	1300.297729	997.439697	5.996295
858.002563	983.916565	1298.514404	994.170410	3.259350
858.301819	978.492615	1301.114868	996.993896	5.734658
858.601013	984.585388	1298.439941	999.743103	4.829535
858.900208	981.910461	1307.430664	999.148682	5.295591
859.199219	987.483215	1312.706177	998.108398	3.267046
859.498291	986.294373	1308.470825	993.873230	2.352393
859.797302	990.901062	1303.938354	998.331360	2.373614
860.096191	989.117737	1293.461792	993.353027	1.391613
860.395020	990.901062	1285.659912	996.770996	1.991436
860.693787	989.043518	1275.703369	992.981506	1.373749
860.992554	983.396484	1276.743652	998.702881	5.217844
861.291260	983.470886	1292.272827	1002.715271	6.231951
861.589844	986.665833	1297.102539	1002.343750	5.050278
861.888428	990.306641	1291.827148	996.845276	2.168554
862.186890	990.083740	1286.328613	994.690491	1.555048
862.485413	982.504883	1284.396851	991.867004	3.101150
862.783813	984.213867	1287.220337	994.616211	3.433043
863.082153	981.093079	1285.882935	991.421204	3.388605
863.380371	984.139465	1293.164551	993.278809	2.957476
863.678589	984.659668	1293.164551	995.730774	3.588632
863.976746	984.436768	1283.430908	995.656494	3.752491
864.274902	978.195313	1280.458862	992.981628	4.891862
864.572937	970.096375	1281.944946	993.575989	7.529171
864.870911	973.737122	1279.641479	999.297180	8.355572
865.168884	976.040527	1280.904663	1009.551025	10.991945
865.466736	978.864075	1274.960449	1003.309570	8.255925
865.764587	976.263428	1279.567261	999.371582	7.618814
866.062317	979.978699	1266.489868	992.981506	4.538325
866.360107	982.653503	1270.873779	997.662598	5.207508
866.657715	981.167419	1267.158569	991.644104	3.663290
866.955322	973.662842	1267.530151	986.963074	4.525931
867.252808	967.272766	1261.883179	982.950745	5.321597
867.550293	968.535950	1259.356812	985.179871	5.723083
867.847717	972.028259	1254.229980	983.099304	3.923096
868.145081	977.972412	1255.047241	981.241699	1.179929
868.442383	979.161316	1253.932739	982.579163	1.243887
868.739624	978.195313	1260.471313	990.901062	4.501180
869.036804	975.371826	1256.607544	994.467590	6.789950
869.333984	964.672180	1253.784058	998.257019	11.616554
869.631042	969.427551	1253.115356	1003.904114	12.152994
869.928101	970.467957	1256.013184	1000.263184	10.434504
870.224976	982.504883	1265.598267	998.628601	5.695548
870.521851	984.288147	1271.171021	993.427307	3.185676
870.818726	985.625549	1275.554810	1000.337463	5.074312
871.115479	973.514221	1274.366089	1002.492249	9.631991
871.412231	965.341003	1275.629150	996.622375	10.081394
871.708862	956.796143	1275.777710	996.325134	12.392249
872.005493	962.145813	1282.836426	986.740173	7.669186
872.302063	959.693848	1287.740601	984.065247	7.429245
872.598572	967.495667	1291.827148	980.721680	4.077931
872.895020	969.873474	1281.573364	988.077637	5.840285
873.191406	978.269592	1277.858276	996.325195	6.026797
873.487671	980.870300	1271.765259	993.650330	4.393349
873.783997	980.573059	1282.539185	984.436707	1.279497
874.080200	971.953918	1280.012939	980.201477	2.677266
874.376343	967.570068	1282.242065	976.709229	2.904345
874.672424	976.114807	1272.211304	990.158142	4.742824
874.968445	977.972412	1273.474243	985.774170	2.640172
875.264465	973.662903	1280.161499	987.854675	4.630290
875.560364	964.003601	1293.090210	981.018799	5.170432
875.856201	967.867249	1288.929199	984.362488	5.137712
876.152039	976.783630	1274.663208	988.597717	3.966061
876.447754	982.653503	1268.718994	993.650330	3.844164
876.743469	983.768066	1274.365967	997.365417	4.679095
877.039063	982.430664	1280.235840	988.597656	2.070814
877.334595	978.343933	1274.291626	983.991028	1.908139
877.630127	976.783630	1270.947876	990.009521	4.496090
877.925537	982.802063	1271.691040	993.130188	3.575119
878.221008	992.015625	1273.771484	995.359192	1.186689
878.516296	993.130127	1281.796265	983.619446	-3.294699
878.811646	979.532715	1296.582520	985.848450	1.992032
879.106812	974.628723	1323.628662	994.764832	5.769660
879.401978	976.932129	1337.523315	1005.910156	8.036255
879.697083	988.746277	1362.860474	1018.764587	8.023836
879.992126	993.575989	1391.392944	1010.516907	4.258471
880.287109	992.461426	1446.228149	1000.411804	1.752085
880.582031	987.334656	1512.283325	996.325195	1.712651
880.876892	981.316101	1652.492676	1009.179626	4.151445
881.171753	977.675232	1897.765991	1036.522949	6.395860
881.466492	972.251160	2307.991211	1057.104858	6.352561
881.761230	973.885742	2846.016846	1083.036499	5.830295
882.055786	970.170654	3407.894531	1109.488159	5.715065
882.350403	970.467834	3792.856445	1132.076294	5.725946
882.644958	963.037598	3884.100342	1138.243408	5.998016
882.939453	969.799072	3682.814209	1122.342651	5.622659
883.233826	977.006409	3317.022217	1108.448120	5.617129
883.528137	982.504883	2918.982422	1083.630859	5.222161
883.822449	981.241699	2568.273682	1068.621704	5.505876
884.116577	977.229309	2282.505371	1048.039917	5.424953
884.410828	980.127197	2054.024414	1035.482666	5.154634
884.704956	979.607117	1866.484375	1028.052368	5.462453
884.999023	976.263489	1737.123413	1025.377563	6.455074
885.292969	971.879578	1623.514526	1020.176331	7.411627
885.586914	973.142761	1562.660522	1009.848328	6.226372
885.880798	974.480286	1510.648560	993.873230	3.616951
886.174622	975.669128	1486.203125	995.656433	3.914980
886.468384	980.424500	1457.373657	998.479980	3.785620
886.762085	989.043640	1431.665039	1008.882263	4.482075
887.055664	990.678223	1412.123413	1000.411804	2.309572
887.349304	983.099365	1394.736328	994.170349	2.689502
887.642822	976.635010	1370.513672	988.597656	3.037140
887.936340	976.114807	1342.575928	990.455261	3.913227
888.229736	979.384094	1308.396606	992.610046	4.019893
888.523071	981.687500	1287.220337	987.854675	2.018498
888.816284	980.647278	1280.087280	993.873230	4.416895
889.109619	978.938293	1275.554810	986.740051	2.630251
889.402710	975.223206	1257.350708	983.990906	3.107708
889.695862	975.446106	1239.815308	977.823730	0.899358
889.988892	977.080811	1222.948364	983.768005	2.719836
890.281921	982.133423	1221.982422	990.158081	3.345713
>>>>>End Processed Spectral Data<<<<<
