Jaz Data File
++++++++++++++++++++++++++++++++++++
Date: Fri Jun 04 12:55:26 2021
User: jaz
Dark Spectrum Present: Yes
Reference Spectrum Present: Yes
Processed Spectrum Present: Yes
Spectrometers: JAZA3586
Integration Time (usec): 40000 (JAZA3586)
Spectra Averaged: 10 (JAZA3586)
Boxcar Smoothing: 1 (JAZA3586)
Correct for Electrical Dark: No (JAZA3586)
Strobe/Lamp Enabled: Yes (JAZA3586)
Correct for Detector Non-linearity: No (JAZA3586)
Correct for Stray Light: No (JAZA3586)
Number of Pixels in Processed Spectrum: 2048
>>>>>Begin Processed Spectral Data<<<<<
W	D	R	S	P
191.335022	0.000000	0.000000	0.000000	0.000000
191.713211	424.640045	428.652374	424.937256	7.407435
192.091385	846.753845	859.013672	851.732117	40.606377
192.469528	1283.133667	1284.322388	1281.944824	-100.010269
192.847641	1300.743530	1286.997437	1286.625977	102.702293
193.225739	1322.068359	1296.508179	1292.941528	113.953934
193.603790	1320.879517	1312.483276	1294.056152	319.468750
193.981842	1316.569946	1320.507935	1304.755737	-300.006195
194.359863	1311.517334	1326.526489	1308.545288	-19.801554
194.737854	1320.433716	1328.755615	1311.517334	-107.143593
195.115829	1324.743164	1333.882446	1314.192261	-115.445648
195.493774	1330.464478	1333.882446	1311.888794	-543.471436
195.871704	1333.287964	1328.012573	1311.071411	421.135681
196.249603	1341.015503	1325.783569	1305.795898	231.222153
196.627457	1339.083618	1321.325317	1306.093140	185.774979
197.005310	1337.448975	1324.074585	1312.186035	188.890411
197.383133	1336.260132	1323.703003	1316.644165	156.213791
197.760910	1337.746216	1323.257202	1318.724731	131.282120
198.138687	1332.767944	1327.120972	1316.347046	290.791168
198.516449	1331.504761	1324.891846	1307.579346	361.798309
198.894180	1329.275757	1324.594604	1303.195435	557.134644
199.271866	1323.405762	1314.043579	1300.817749	241.268661
199.649536	1314.786621	1314.340820	1299.777466	3366.785400
200.027191	1305.350220	1314.266479	1306.241943	10.001095
200.404816	1308.693726	1323.405762	1311.294434	17.677418
200.782410	1306.984863	1334.402466	1313.746338	24.661072
201.159988	1308.470825	1347.999878	1312.260254	9.586439
201.537537	1319.021973	1351.120605	1309.065308	-31.018969
201.915070	1320.730835	1354.910034	1308.099365	-36.956600
202.292557	1328.607056	1349.931763	1317.089966	-54.008198
202.670029	1321.696777	1358.328125	1313.969360	-21.095093
203.047485	1324.445923	1354.315674	1305.498779	-63.432545
203.424911	1316.644165	1357.807861	1290.043823	-64.620880
203.802292	1313.523438	1351.194946	1290.415405	-61.340874
204.179688	1312.409058	1339.603638	1305.127319	-26.776432
204.557037	1314.340820	1338.266357	1306.762085	-31.676344
204.934357	1311.665894	1337.300415	1308.768066	-11.304394
205.311661	1305.201538	1348.891724	1301.635132	-8.162946
205.688934	1300.371948	1336.185913	1303.492554	8.713376
206.066177	1294.873535	1337.968994	1302.601074	17.931213
206.443390	1302.229492	1342.129883	1301.412109	-2.048558
206.820587	1311.814575	1350.749146	1297.548462	-36.641251
207.197769	1314.340820	1357.807861	1291.307007	-52.991447
207.574921	1309.808350	1355.132935	1296.879639	-28.524719
207.952042	1303.566895	1349.931763	1303.641235	0.160339
208.329147	1304.681519	1337.448853	1311.442993	20.634802
208.706223	1313.077759	1336.111450	1310.625610	-10.645921
209.083267	1313.077759	1348.148438	1305.796021	-20.763039
209.460297	1318.798950	1357.064819	1300.223267	-48.543739
209.837280	1305.944580	1354.687134	1293.684692	-25.152330
210.214264	1301.635010	1349.783203	1293.758911	-16.358036
210.591217	1299.034546	1337.449097	1288.780640	-26.692766
210.968124	1302.378052	1341.387085	1291.752808	-27.237907
211.345016	1308.842407	1343.096069	1285.511353	-68.112587
211.721893	1307.505005	1352.532593	1284.991333	-49.999729
212.098724	1305.573120	1352.086670	1284.471069	-45.367535
212.475555	1302.675415	1353.349731	1282.910767	-39.003284
212.852356	1304.161377	1352.458130	1290.786743	-27.692616
213.229126	1305.350220	1356.098999	1289.300903	-31.625029
213.605865	1304.458496	1352.681030	1299.183105	-10.939679
213.982590	1309.362549	1356.173218	1298.291626	-23.650427
214.359283	1309.659668	1347.479858	1299.851929	-25.932549
214.735931	1311.220093	1341.461304	1298.365845	-42.505733
215.112579	1301.189331	1335.740112	1301.486450	0.859949
215.489197	1299.034546	1342.055786	1298.811401	-0.518685
215.865799	1299.703247	1345.102173	1300.669067	2.127408
216.242355	1297.325562	1344.582153	1295.319336	-4.245388
216.618896	1293.758911	1341.164185	1290.786743	-6.269699
216.995407	1295.319336	1343.764771	1288.334839	-14.417245
217.371902	1300.148926	1345.770874	1287.963379	-26.709835
217.748367	1297.028198	1343.616089	1288.632080	-18.022104
218.124802	1300.074585	1346.142456	1284.396851	-34.031818
218.501236	1296.433960	1348.074219	1286.700195	-18.849178
218.877609	1302.303711	1352.755371	1287.666138	-29.013065
219.253983	1296.136719	1351.938110	1289.672241	-11.584796
219.630295	1302.155151	1357.807983	1287.517700	-26.301359
220.006592	1306.910522	1352.903931	1287.294800	-42.648987
220.382889	1313.597778	1354.241333	1289.226563	-59.963299
220.759140	1318.278809	1349.931763	1285.511353	-103.521004
221.135391	1308.470825	1357.956421	1284.991211	-47.447372
221.511581	1302.749634	1357.064819	1283.282227	-35.841557
221.887772	1295.913818	1357.287720	1279.492798	-26.755705
222.263931	1305.944702	1350.080444	1285.139893	-47.138233
222.640060	1308.025024	1354.018555	1282.687866	-55.088528
223.016159	1309.436890	1356.619019	1292.867310	-35.118340
223.392212	1306.464722	1357.510742	1289.598022	-33.042145
223.768265	1308.470825	1349.411743	1289.598022	-46.097652
224.144302	1308.025146	1348.520020	1281.944702	-64.404312
224.520294	1308.470947	1357.584961	1283.802368	-50.227169
224.896286	1302.006714	1370.885254	1285.957153	-23.301250
225.272217	1302.006714	1379.801636	1296.285278	-7.354510
225.648148	1308.768188	1379.801392	1304.607300	-5.857667
226.024048	1314.043579	1373.485718	1304.904419	-15.374885
226.399902	1316.569824	1362.711914	1299.257446	-37.519711
226.775772	1310.774292	1361.597290	1291.975708	-36.988342
227.151581	1307.356323	1365.683960	1294.279175	-22.420158
227.527374	1293.164551	1384.631226	1297.102539	4.305380
227.903137	1293.015991	1398.674438	1295.987915	2.812765
228.278870	1296.731079	1412.197388	1293.610474	-2.702611
228.654572	1310.031250	1420.890991	1297.028320	-11.729172
229.030273	1309.585327	1435.454102	1300.743530	-7.024615
229.405930	1306.910522	1448.977417	1296.508179	-7.322145
229.781555	1302.823853	1453.138306	1291.232788	-7.711211
230.157181	1296.879761	1451.578003	1294.873535	-1.296864
230.532761	1295.839478	1445.410767	1302.006592	4.123194
230.908325	1295.913696	1437.311890	1302.303833	4.519249
231.283859	1301.040527	1427.503906	1303.343994	1.821450
231.659332	1296.136719	1414.277954	1299.926147	3.207541
232.034821	1297.845581	1410.934204	1299.851685	1.773922
232.410263	1298.514282	1407.590820	1292.124390	-5.858173
232.785690	1299.331665	1412.940552	1300.594849	1.111870
233.161087	1296.433960	1418.364746	1304.532837	6.642192
233.536469	1301.114868	1417.473022	1303.343994	1.915745
233.911804	1303.789917	1419.256348	1290.861206	-11.196943
234.287140	1300.594849	1418.438965	1287.220215	-11.349428
234.662430	1303.789917	1429.955933	1289.375122	-11.425260
235.037704	1302.006714	1435.008423	1295.170776	-5.139737
235.412933	1312.854858	1436.717407	1294.947876	-14.457140
235.788162	1297.251343	1435.082886	1289.375122	-5.714382
236.163345	1301.858032	1437.088867	1283.505249	-13.571448
236.538513	1295.616577	1442.884644	1283.505249	-8.224002
236.913635	1300.000366	1450.166138	1295.690796	-2.869875
237.288742	1291.975708	1453.212524	1306.613281	9.078307
237.663834	1286.997437	1458.785522	1307.282104	11.807960
238.038879	1291.529907	1458.116699	1305.350220	8.296164
238.413910	1300.966309	1468.964844	1306.241821	3.140213
238.788910	1313.597778	1468.370239	1312.483276	-0.720091
239.163879	1314.786621	1478.104004	1311.963135	-1.728834
239.538834	1312.334717	1478.772583	1302.526733	-5.892880
239.913757	1305.721802	1495.936646	1292.867310	-6.757881
240.288651	1300.223267	1508.345215	1291.752686	-4.070009
240.663528	1298.960327	1529.298706	1293.238770	-2.483979
241.038361	1301.040649	1541.484253	1299.034546	-0.834334
241.413177	1309.288208	1571.651245	1304.235596	-1.925810
241.787979	1310.551392	1610.140015	1309.956909	-0.198433
242.162735	1307.950806	1656.876343	1314.637939	1.916493
242.537476	1300.074707	1675.006226	1317.758667	4.716584
242.912170	1300.074829	1676.789429	1328.309692	7.495028
243.286865	1295.913696	1665.941284	1331.281860	9.558250
243.661514	1297.771362	1655.390503	1332.842163	9.806746
244.036148	1296.359741	1646.994141	1324.594604	8.052508
244.410751	1299.257324	1641.421509	1319.021851	5.776328
244.785339	1299.257446	1636.963257	1316.495605	5.104490
245.159882	1297.325562	1650.189087	1321.771118	6.927765
245.534378	1295.170776	1678.275513	1325.857788	8.010084
245.908890	1290.563965	1730.956055	1325.188965	7.862312
246.283356	1291.827148	1793.964844	1321.622559	5.933713
246.657791	1297.102539	1862.992188	1323.628662	4.687508
247.032196	1304.458618	1920.130859	1329.201294	4.018806
247.406586	1302.898071	1966.570190	1340.123779	5.609051
247.780960	1307.876587	1974.817749	1342.947266	5.258437
248.155289	1313.226440	1975.709351	1341.312744	4.239552
248.529602	1318.056030	1928.229858	1325.634888	1.242082
248.903870	1310.105591	1877.183960	1323.479980	2.358473
249.278122	1302.155151	1814.621094	1325.857788	4.625212
249.652344	1301.040649	1775.983765	1334.031006	6.946170
250.026550	1304.087036	1756.293457	1336.334351	7.131105
250.400711	1299.851807	1741.878540	1327.789673	6.320402
250.774857	1297.325562	1741.061523	1324.891846	6.212317
251.148987	1304.978638	1754.658691	1324.520264	4.345673
251.523071	1309.882690	1771.896973	1320.582153	2.315830
251.897125	1315.455444	1790.844116	1329.275513	2.907109
252.271164	1306.464722	1793.741821	1320.730835	2.927721
252.645187	1298.662964	1794.931030	1330.984619	6.512943
253.019165	1299.851807	1788.912476	1326.006348	5.347913
253.393112	1298.737183	1778.287109	1333.287964	7.204835
253.767044	1297.697144	1760.008667	1324.743286	5.850199
254.140930	1299.257324	1736.677734	1323.331543	5.503680
254.514801	1303.418335	1718.250610	1320.359497	4.083858
254.888657	1312.631958	1716.095703	1325.189087	3.112331
255.262466	1300.966431	1722.931274	1324.445923	5.564324
255.636276	1295.245117	1747.228516	1325.783447	6.756516
256.010010	1289.746704	1772.268555	1324.074585	7.114264
256.383759	1302.303711	1798.571655	1325.411865	4.656387
256.757446	1302.526733	1826.509399	1324.966064	4.282457
257.131134	1311.442993	1860.763062	1328.829956	3.165179
257.504791	1309.882690	1901.332397	1328.086914	3.077899
257.878418	1315.752563	1956.539063	1331.950562	2.527831
258.252014	1311.443115	2031.956421	1340.123901	3.980605
258.625580	1306.984863	2133.454102	1345.325073	4.639037
258.999115	1300.520508	2256.276367	1353.795654	5.574138
259.372650	1303.269653	2378.578857	1363.009155	5.555565
259.746124	1300.000366	2486.614990	1382.550781	6.956801
260.119598	1304.235718	2543.679443	1391.021118	7.001964
260.493042	1300.074707	2545.462646	1393.324585	7.487617
260.866425	1304.904419	2502.367188	1384.556763	6.651760
261.239838	1308.025024	2416.175781	1373.708862	5.927338
261.613159	1309.882690	2321.439941	1359.145386	4.869986
261.986511	1304.087158	2227.075439	1354.390015	5.449999
262.359802	1299.554565	2161.020508	1355.058716	6.442988
262.733063	1297.102661	2133.156982	1356.098999	7.056520
263.106293	1298.142822	2118.519287	1351.492188	6.503035
263.479523	1302.303711	2111.980469	1344.507813	5.212463
263.852692	1305.127319	2108.339600	1333.287964	3.506003
264.225861	1301.932251	2105.144775	1329.424194	3.422748
264.598969	1298.291504	2114.061279	1334.551147	4.444838
264.972076	1299.777466	2131.002197	1339.232300	4.746591
265.345154	1303.864258	2167.113037	1350.452026	5.396795
265.718201	1300.223267	2210.728760	1352.012329	5.687946
266.091217	1305.573120	2258.728516	1362.934937	6.018097
266.464203	1305.424438	2308.808350	1352.829590	4.724528
266.837158	1313.151978	2347.966064	1355.578857	4.099952
267.210114	1304.235718	2380.213379	1356.024536	4.813187
267.583038	1310.402832	2390.541504	1365.312500	5.083576
267.955902	1301.783569	2405.402100	1368.878906	6.079577
268.328766	1302.749512	2389.129883	1365.906860	5.813558
268.701569	1293.981812	2403.024170	1364.420898	6.351343
269.074371	1292.272949	2419.742432	1362.637695	6.240945
269.447144	1295.170776	2463.878174	1364.495239	5.931721
269.819885	1302.229614	2532.608398	1370.142212	5.519650
270.192596	1308.768066	2613.747070	1371.628296	4.816953
270.565277	1311.442993	2737.089111	1383.665405	5.065942
270.937927	1304.309937	2847.577393	1383.516602	5.132401
271.310577	1307.653442	2934.437500	1386.860352	4.868926
271.683136	1304.458496	2992.616455	1394.885132	5.356527
272.055725	1313.151978	2996.406006	1401.498047	5.248528
272.428284	1309.437012	2981.619873	1404.841431	5.705382
272.800812	1299.331665	2935.626221	1387.380493	5.380989
273.173279	1293.981812	2876.704102	1376.903687	5.239193
273.545776	1289.598022	2841.781982	1371.925415	5.303971
273.918152	1304.012817	2807.454102	1371.108032	4.462776
274.290558	1303.715698	2797.943359	1382.401978	5.266017
274.662964	1307.430786	2797.794922	1387.528931	5.374401
275.035278	1300.743408	2814.810303	1394.364746	6.183434
275.407593	1303.269653	2844.976807	1394.141968	5.894266
275.779907	1307.430664	2886.363525	1390.129517	5.237642
276.152161	1311.220215	2931.316650	1395.627930	5.210042
276.524384	1308.322388	2975.526611	1390.946899	4.955872
276.896606	1306.316162	2998.634766	1395.925293	5.295051
277.268799	1304.830200	3004.430664	1385.968750	4.773978
277.640930	1307.430664	3003.984619	1391.021362	4.927087
278.013031	1306.093140	3007.253906	1395.851074	5.276276
278.385162	1302.006470	3010.968994	1406.699219	6.126100
278.757233	1295.839478	3017.210693	1409.448242	6.599899
279.129272	1299.851807	3044.033936	1404.172852	5.981087
279.501282	1301.932251	3075.240967	1408.408081	6.004360
279.873230	1305.052979	3142.262451	1408.705200	5.641829
280.245178	1300.297607	3229.121826	1413.237671	5.855384
280.617126	1299.034546	3337.752197	1418.884766	5.878706
280.988983	1301.412231	3441.033203	1425.423462	5.795944
281.360870	1298.440063	3537.775391	1434.265503	6.065435
281.732697	1297.028320	3619.954346	1427.132324	5.600867
282.104492	1296.136597	3657.179932	1425.720581	5.488420
282.476288	1297.325317	3658.443359	1423.862915	5.359223
282.848053	1299.851685	3638.975586	1436.197266	5.828916
283.219757	1300.891968	3636.969482	1437.311890	5.839700
283.591461	1302.452393	3626.269775	1438.277832	5.844927
283.963135	1295.839478	3662.678467	1432.705078	5.782633
284.334747	1295.467896	3707.408447	1436.568726	5.850096
284.706360	1293.758911	3793.897217	1441.101196	5.893366
285.077942	1301.040649	3872.806396	1459.825562	6.174160
285.449524	1294.204834	3949.263672	1471.936890	6.694091
285.821014	1294.427734	3972.817627	1475.726440	6.768944
286.192535	1291.604248	4002.835938	1465.101074	6.399189
286.563995	1296.359497	4000.607422	1463.094849	6.165683
286.935425	1295.096558	3988.124268	1460.568481	6.144456
287.306824	1296.285278	3911.889648	1455.887573	6.101928
287.678223	1298.662964	3856.534180	1439.986816	5.525058
288.049561	1297.696899	3808.534424	1438.352051	5.601922
288.420898	1299.926147	3807.197266	1434.042603	5.349101
288.792145	1302.155151	3832.608643	1441.992798	5.526189
289.163452	1306.761841	3916.496826	1444.890747	5.292833
289.534668	1297.696899	4027.579102	1451.280762	5.626025
289.905914	1293.684692	4122.537598	1452.172485	5.602546
290.277039	1295.988159	4208.877441	1459.453979	5.611811
290.648193	1300.594849	4249.224121	1463.540649	5.526154
291.019318	1296.508179	4258.585938	1470.748047	5.882353
291.390381	1291.975708	4208.431641	1468.964722	6.068633
291.761475	1296.582397	4126.996094	1464.283569	5.924971
292.132507	1305.870239	4090.067627	1465.992554	5.751112
292.503510	1305.127319	4095.565674	1464.060913	5.695650
292.874481	1309.065308	4156.419434	1475.131836	5.832311
293.245422	1304.904297	4233.174316	1474.166016	5.780263
293.616364	1302.898193	4345.297363	1482.190796	5.893132
293.987213	1296.582520	4482.312012	1481.076172	5.791253
294.358093	1288.632202	4586.261719	1489.695313	6.097201
294.728943	1293.238892	4688.427246	1488.506470	5.751303
295.099731	1297.399780	4763.918945	1499.354614	5.825868
295.470490	1302.006714	4871.286621	1509.162476	5.803854
295.841248	1306.018921	4955.100098	1528.332520	6.092318
296.211975	1302.823853	5066.331543	1534.945679	6.167699
296.582642	1301.709351	5171.172363	1539.106445	6.135143
296.953308	1296.508179	5220.955078	1530.413086	5.960201
297.323883	1291.901489	5207.803223	1527.218140	6.009258
297.694519	1294.724976	5113.513184	1518.153320	5.850766
298.065063	1293.758911	5003.545410	1515.255493	5.970602
298.435608	1300.817749	4873.887207	1518.227539	6.084679
298.806122	1295.839478	4701.059082	1506.190430	6.177309
299.176575	1297.771362	4553.122559	1498.537231	6.167257
299.547028	1290.786987	4430.819824	1473.645874	5.823471
299.917450	1298.142822	4389.582031	1480.184570	5.888576
300.287872	1299.851929	4382.077637	1481.224731	5.884475
300.658234	1305.796021	4389.433105	1487.911987	5.905882
301.028564	1299.331665	4372.121094	1479.144165	5.851768
301.398865	1299.851807	4353.173828	1473.720215	5.694401
301.769135	1297.251099	4301.013184	1468.221802	5.691885
302.139374	1298.365845	4275.081543	1464.283691	5.573856
302.509583	1288.632202	4232.654297	1461.088745	5.857855
302.879791	1284.322632	4192.308105	1462.723267	6.134853
303.249939	1287.889038	4135.317871	1467.255859	6.299256
303.620087	1289.746460	4085.089111	1460.940063	6.124244
303.990173	1295.244995	4064.729736	1452.320923	5.671666
304.360260	1297.696899	4069.262451	1446.079468	5.353746
304.730286	1305.350220	4063.912842	1447.268555	5.144648
305.100281	1308.842407	4046.749268	1453.584351	5.286592
305.470276	1302.898315	4046.303467	1458.636719	5.676828
305.840179	1299.480347	4073.498047	1462.277710	5.868649
306.210144	1295.468018	4113.621582	1459.305542	5.813648
306.579987	1295.913696	4158.054688	1456.556274	5.612671
306.949890	1295.988159	4187.181641	1453.584106	5.450896
307.319702	1296.359497	4263.118652	1461.460327	5.565023
307.689484	1302.898193	4344.851563	1464.952515	5.327311
308.059265	1306.613403	4446.645996	1473.051392	5.300518
308.429016	1304.978638	4526.967285	1474.017456	5.246412
308.798737	1304.830078	4600.007324	1474.166016	5.138902
309.168396	1302.898315	4644.812012	1476.395020	5.191538
309.538055	1306.167603	4654.693848	1483.676758	5.301113
309.907684	1306.018921	4653.431152	1489.100952	5.469360
310.277313	1298.737183	4667.474121	1489.769531	5.670741
310.646851	1296.731079	4694.148926	1490.958496	5.716913
311.016388	1298.960083	4679.288574	1496.308228	5.838135
311.385895	1310.477173	4629.653809	1500.543457	5.726308
311.755371	1315.827026	4560.478027	1492.593140	5.447924
312.124817	1306.316284	4514.484863	1484.865601	5.565460
312.494232	1306.390503	4473.617676	1472.902710	5.257350
312.863617	1304.235718	4458.163086	1464.432251	5.079272
313.232971	1307.653564	4471.686523	1467.553101	5.053662
313.602295	1300.743530	4547.920898	1477.286743	5.436821
313.971619	1299.034546	4624.750000	1488.729370	5.703880
314.340820	1297.919922	4648.154785	1485.608765	5.602259
314.710083	1301.263550	4631.288574	1489.026489	5.638484
315.079285	1299.331665	4575.561523	1486.128784	5.701588
315.448486	1303.418457	4512.775879	1490.215332	5.820383
315.817596	1305.573120	4390.770508	1477.881226	5.584995
316.186707	1304.755859	4286.747559	1473.794434	5.668647
316.555786	1304.458618	4211.032227	1462.351929	5.432283
316.924866	1303.492676	4186.289551	1458.339355	5.371405
317.293884	1307.282104	4173.286621	1450.017578	4.980295
317.662872	1306.464722	4185.025879	1446.079468	4.850158
318.031830	1307.653687	4208.877441	1454.475708	5.060693
318.400757	1310.105591	4244.245605	1461.460327	5.158402
318.769684	1310.402710	4275.527344	1471.936890	5.447804
319.138550	1296.359619	4273.446777	1465.844116	5.692964
319.507416	1300.743530	4254.202637	1464.655273	5.549823
319.876190	1298.811523	4193.273926	1453.955688	5.360034
320.244995	1309.882690	4146.834473	1447.714233	4.858438
320.613770	1300.372070	4092.593750	1443.850586	5.138507
320.982483	1296.136597	4101.807129	1441.101196	5.166843
321.351166	1297.325439	4136.877930	1443.107422	5.133977
321.719818	1293.461792	4205.236816	1450.834961	5.404716
322.088440	1293.684692	4306.288574	1457.076294	5.423600
322.457062	1292.570190	4453.259277	1467.330078	5.529171
322.825623	1291.455688	4601.344238	1466.958496	5.302378
323.194183	1294.724976	4736.649902	1483.305176	5.478917
323.562653	1295.393677	4797.652344	1492.741699	5.634878
323.931183	1296.508179	4824.104004	1496.456665	5.668124
324.299591	1297.845703	4788.364746	1491.627075	5.551649
324.668060	1297.771362	4735.758301	1480.035767	5.301486
325.036407	1299.183105	4672.006348	1479.292847	5.340029
325.404755	1306.093262	4596.143066	1478.401245	5.237246
325.773102	1296.805420	4533.952148	1475.131836	5.508753
326.141388	1290.638306	4450.584473	1469.262085	5.652747
326.509674	1286.031616	4377.768066	1461.906128	5.688535
326.877899	1299.108887	4296.926270	1459.677124	5.356172
327.246124	1313.523560	4268.765625	1461.014526	4.990825
327.614288	1309.288208	4230.945313	1459.305542	5.134666
327.982422	1299.183105	4242.091309	1457.522095	5.380358
328.350525	1292.644409	4243.948730	1459.379761	5.649548
328.718628	1297.920044	4288.678711	1461.534546	5.470669
329.086700	1303.566895	4318.251465	1466.587036	5.407536
329.454712	1306.018921	4372.714844	1464.878296	5.180148
329.822693	1305.647461	4412.244141	1463.912231	5.094474
330.190674	1308.025024	4464.107422	1465.249634	4.981638
330.558563	1302.823853	4502.224609	1474.166016	5.355445
330.926483	1302.675293	4574.446777	1480.556030	5.436832
331.294312	1296.805298	4641.394043	1482.487915	5.551732
331.662231	1301.857788	4732.266113	1487.466187	5.410680
332.029999	1300.966187	4802.036621	1493.856323	5.509462
332.397766	1303.269653	4872.847168	1498.017212	5.455759
332.765503	1300.148926	4919.359863	1492.295898	5.309085
333.133240	1297.399780	4953.910645	1483.008179	5.076107
333.500916	1297.771362	4963.272949	1488.580688	5.205545
333.868561	1298.811523	4956.660645	1490.884155	5.250972
334.236176	1303.715454	4920.846680	1494.822266	5.283381
334.603790	1297.399780	4873.589844	1489.323730	5.366716
334.971344	1300.594849	4836.958496	1484.419922	5.198138
335.338867	1297.994263	4821.651855	1490.066772	5.450941
335.706360	1307.356445	4823.287109	1491.478516	5.236794
336.073853	1305.796021	4837.404297	1492.518677	5.287185
336.441284	1298.662964	4871.806152	1487.243164	5.277712
336.808655	1291.381226	4898.852539	1486.945923	5.421102
337.176086	1287.889038	4934.814941	1493.930542	5.649731
337.543396	1303.269653	4937.267090	1494.079102	5.250676
337.910706	1308.619507	4959.706543	1491.478516	5.008345
338.277954	1312.483276	4949.007324	1485.608521	4.760735
338.645264	1294.427612	4933.255371	1486.425903	5.276378
339.012421	1283.728149	4878.791504	1491.329956	5.774635
339.379669	1281.796265	4803.002441	1493.113281	6.001268
339.746796	1288.186279	4707.448730	1488.803589	5.867269
340.113953	1296.730957	4641.542480	1487.540527	5.704643
340.481018	1300.743286	4611.598145	1479.590210	5.401835
340.848114	1307.207764	4618.730957	1482.190796	5.284065
341.215118	1306.093140	4668.365723	1485.014282	5.321435
341.582153	1307.579224	4767.782715	1493.930664	5.385563
341.949066	1297.845581	4938.901855	1497.348511	5.479260
342.316010	1300.520508	5145.983398	1507.750854	5.388957
342.682922	1297.919922	5392.520020	1517.484497	5.362296
343.049835	1308.025024	5683.489746	1537.471802	5.243941
343.416656	1307.876465	5968.291504	1546.165161	5.113036
343.783478	1308.768066	6191.274902	1554.784546	5.038733
344.150269	1309.882690	6312.312988	1556.493530	4.929821
344.516998	1307.059204	6329.105469	1559.762695	5.031883
344.883728	1301.709351	6249.750000	1565.855469	5.338398
345.250427	1297.473999	6143.349121	1568.010376	5.582818
345.617065	1295.244995	6000.242188	1563.403442	5.699439
345.983704	1294.873535	5876.304688	1549.880371	5.566095
346.350281	1290.563965	5729.334473	1540.443970	5.629487
346.716827	1295.765137	5615.576660	1525.063354	5.308061
347.083405	1301.783691	5520.692871	1519.490601	5.160265
347.449860	1304.532837	5468.755371	1518.227539	5.131683
347.816376	1301.412231	5445.423828	1523.651733	5.362907
348.182770	1292.941650	5466.451172	1532.345093	5.736262
348.549194	1296.136597	5505.980469	1531.378906	5.587911
348.915558	1299.108765	5576.047363	1534.796875	5.510674
349.281921	1300.891968	5640.616699	1535.094238	5.396708
349.648193	1297.176880	5680.591797	1533.756714	5.397158
350.014526	1298.737183	5701.842285	1538.734985	5.450649
350.380737	1298.439941	5732.603516	1535.540039	5.347121
350.746948	1300.520508	5783.426270	1539.923828	5.340360
351.113159	1292.644409	5845.617676	1534.351074	5.308765
351.479309	1298.662964	5906.769531	1532.419312	5.072720
351.845428	1301.486450	6014.806152	1539.849609	5.057224
352.211517	1308.545288	6135.993652	1548.765991	4.976142
352.577576	1309.436890	6258.295410	1560.580078	5.074770
352.943604	1304.681519	6377.625000	1559.762695	5.028268
353.309601	1301.337891	6511.890625	1558.276733	4.931125
353.675537	1292.050049	6655.666504	1562.586060	5.043911
354.041473	1296.731079	6801.746094	1573.062866	5.019637
354.407379	1294.353394	6903.986328	1588.740845	5.247891
354.773254	1301.560669	7048.058594	1600.926392	5.209533
355.139038	1295.987915	7186.707520	1607.093628	5.281285
355.504913	1299.851807	7431.980957	1616.529907	5.164244
355.870636	1293.461792	7667.892578	1633.322388	5.331623
356.236389	1306.241821	7926.614746	1651.080688	5.208753
356.602081	1312.928955	8150.414063	1667.501587	5.185717
356.967804	1317.164307	8338.994141	1676.789551	5.121531
357.333405	1312.706177	8439.749023	1684.740112	5.220032
357.699036	1302.155151	8440.045898	1690.015503	5.433823
358.064606	1307.579224	8382.610352	1685.260132	5.338223
358.430176	1303.864136	8329.112305	1682.585083	5.390855
358.795654	1304.755737	8397.098633	1680.430298	5.296904
359.161163	1299.405884	8580.625977	1689.866821	5.362576
359.526581	1302.006470	8944.710938	1701.681030	5.229491
359.892029	1301.932129	9422.625000	1720.628052	5.155914
360.257416	1301.189087	9957.530273	1742.695923	5.100387
360.622772	1289.820923	10384.326172	1760.231445	5.172470
360.988098	1290.118164	10643.344727	1773.605957	5.169209
361.353394	1284.322388	10748.706055	1779.475952	5.231757
361.718658	1291.604126	10601.734375	1777.098267	5.214687
362.083893	1296.062378	10217.217773	1751.166626	5.101405
362.449097	1300.817749	9601.620117	1722.560059	5.080741
362.814209	1299.034546	8987.136719	1693.433228	5.129988
363.179382	1289.746582	8425.037109	1677.161011	5.429554
363.544434	1291.084106	8028.929688	1655.464478	5.407966
363.909546	1292.124390	7761.217285	1642.610229	5.417851
364.274536	1301.635132	7631.707031	1631.910645	5.217564
364.639587	1305.052979	7533.255859	1623.514526	5.113217
365.004517	1306.836304	7474.928223	1614.523804	4.988374
365.369507	1306.241821	7380.935059	1610.140015	5.002692
365.734344	1301.263550	7353.740723	1607.762207	5.064020
366.099274	1300.371948	7344.823730	1608.431030	5.096560
366.464081	1299.406006	7356.118652	1603.972778	5.028582
366.828918	1306.984985	7312.502441	1603.973022	4.945253
367.193665	1302.303833	7218.880859	1597.805664	4.994473
367.558411	1300.966309	7144.578125	1600.703491	5.129314
367.923126	1289.300781	7066.782715	1601.446655	5.402802
368.287781	1295.690796	7045.458496	1592.827515	5.167804
368.652435	1307.876465	7012.244629	1587.849121	4.908040
369.017059	1309.139648	7037.061035	1586.214478	4.837266
369.381653	1307.356323	7065.742188	1596.765503	5.025874
369.746185	1296.953979	7129.865723	1597.508423	5.152734
370.110687	1293.758911	7208.106934	1597.879883	5.142088
370.475220	1296.656738	7293.927246	1609.396851	5.214707
370.839661	1298.440063	7351.139160	1620.170898	5.315494
371.204041	1306.241821	7379.375000	1625.520630	5.257234
371.568451	1301.263550	7363.919434	1624.926147	5.338627
371.932770	1299.554565	7344.972656	1611.700195	5.163342
372.297150	1303.864136	7317.257813	1606.573364	5.033917
372.661377	1304.681519	7322.458984	1605.384766	4.996915
373.025696	1299.777588	7361.170410	1613.483765	5.175480
373.389862	1292.941650	7408.798340	1613.855103	5.247237
373.754059	1288.111938	7507.917969	1613.037720	5.224050
374.118225	1292.272949	7606.963379	1622.771362	5.233802
374.482361	1294.724976	7787.222656	1635.700195	5.251834
374.846436	1298.662964	7982.638672	1643.278931	5.155853
375.210510	1290.415405	8287.428711	1652.863892	5.180046
375.574524	1292.198730	8560.044922	1669.136353	5.186373
375.938538	1286.180054	8864.389648	1684.368286	5.254384
376.302460	1288.483398	9067.235352	1689.123657	5.150444
376.666412	1291.232666	9207.444336	1695.959595	5.112634
377.030304	1301.412109	9201.351563	1706.287720	5.125047
377.394196	1315.083984	9096.287109	1703.761353	4.995080
377.757996	1308.396606	8890.691406	1688.083618	5.007547
378.121796	1304.978638	8619.040039	1659.774292	4.850871
378.485565	1298.885864	8326.139648	1646.176758	4.942057
378.849304	1295.319336	8121.138184	1642.090210	5.080282
379.212982	1288.780640	7982.786621	1640.455444	5.253578
379.576630	1279.864380	7946.081543	1645.507935	5.485023
379.940277	1282.539307	7930.106934	1639.266602	5.366283
380.303864	1288.111938	7932.558594	1640.232544	5.299472
380.667450	1294.353394	7946.007324	1637.631836	5.160799
381.030945	1289.895264	7964.285645	1638.003418	5.215580
381.394501	1283.802490	8002.626465	1646.028198	5.391207
381.757935	1290.341187	8062.662598	1645.062134	5.237804
382.121399	1291.901489	8130.352051	1652.492554	5.272994
382.484741	1306.836304	8260.233398	1658.065308	5.051186
382.848145	1297.474121	8375.922852	1675.006226	5.333543
383.211487	1302.526733	8488.713867	1682.956543	5.293903
383.574768	1290.266724	8571.338867	1690.386719	5.495344
383.938019	1290.340942	8618.149414	1685.408569	5.391347
384.301270	1292.941650	8648.093750	1688.157837	5.373324
384.664459	1296.508179	8683.981445	1684.888550	5.257283
385.027649	1301.486450	8710.953125	1686.969116	5.202569
385.390778	1300.594727	8824.636719	1687.563354	5.143095
385.753876	1301.412231	8908.524414	1687.117554	5.070325
386.116943	1296.805420	9016.114258	1688.306519	5.071712
386.479980	1295.690918	9059.878906	1685.334351	5.018470
386.842987	1302.600952	9074.516602	1690.461304	4.990538
387.205994	1308.991089	9073.922852	1693.582031	4.952921
387.568909	1308.842407	9017.006836	1696.554077	5.029883
387.931793	1301.189209	8978.071289	1691.352905	5.082320
388.294678	1307.504883	8968.634766	1686.820313	4.951168
388.657471	1310.922974	8972.202148	1683.030884	4.856995
389.020294	1302.749634	9034.245117	1690.089722	5.009899
389.383057	1293.313110	9188.719727	1702.275269	5.179748
389.745819	1291.009888	9393.202148	1716.690063	5.253889
390.108521	1296.731079	9633.347656	1728.578491	5.180128
390.471191	1286.254517	9865.022461	1749.606079	5.401144
390.833801	1285.437134	10057.467773	1766.770142	5.487134
391.196442	1282.464966	10190.097656	1775.315063	5.532897
391.558960	1288.186157	10226.729492	1774.794922	5.443938
391.921509	1290.192505	10209.194336	1769.147827	5.370055
392.284027	1300.669067	10171.893555	1772.417114	5.317733
392.646484	1302.080933	10118.619141	1775.166382	5.365887
393.008911	1300.743530	10113.565430	1784.156860	5.485341
393.371307	1299.703247	10118.024414	1798.645874	5.658023
393.733673	1306.539063	10087.633789	1811.426147	5.749705
394.096008	1304.681519	10013.554688	1822.422852	5.944986
394.458344	1302.749634	9871.338867	1820.416626	6.041450
394.820587	1303.343994	9664.257813	1811.500366	6.077761
395.182831	1310.031250	9446.030273	1805.853149	6.094173
395.545013	1305.424438	9225.871094	1798.868774	6.230006
395.907196	1297.102661	9080.163086	1806.967773	6.550959
396.269287	1288.483521	9013.588867	1819.227905	6.870384
396.631409	1285.362793	8947.682617	1846.199707	7.319414
396.993469	1293.387451	8912.908203	1856.007690	7.383932
397.355530	1295.616577	8912.313477	1865.964233	7.488123
397.717499	1304.978638	8962.765625	1872.354370	7.409134
398.079468	1304.532959	9010.467773	1884.837036	7.530612
398.441376	1305.721802	8984.982422	1912.031860	7.895422
398.803284	1306.464722	8951.768555	1934.174194	8.210393
399.165131	1304.904297	8922.270508	1963.449585	8.645315
399.526978	1306.316162	8911.125000	1970.433960	8.732866
399.888763	1305.721680	8908.079102	1983.511108	8.915517
400.250519	1302.229492	8918.852539	1989.603882	9.024661
400.612244	1302.675293	8944.264648	2008.402710	9.235349
400.973938	1299.628784	9026.739258	2025.492188	9.393723
401.335602	1297.176880	9120.065430	2052.092529	9.650088
401.697205	1300.371948	9304.707031	2090.283936	9.868552
402.058807	1301.857910	9492.990234	2126.692383	10.069847
402.420349	1304.755737	9731.577148	2176.772461	10.348110
402.781860	1300.074707	9919.859375	2212.066406	10.580214
403.143341	1294.502075	10077.678711	2245.502686	10.827524
403.504822	1295.913818	10235.051758	2279.830322	11.006839
403.866241	1297.771362	10343.459961	2308.288330	11.171255
404.227631	1300.520630	10463.903320	2337.414795	11.315626
404.588959	1302.526733	10489.910156	2341.427246	11.307903
404.950287	1298.514404	10439.532227	2335.631592	11.345752
405.311554	1297.325562	10312.771484	2340.238525	11.568069
405.672821	1295.765259	10175.163086	2331.545166	11.664980
406.034027	1299.703247	10073.888672	2339.421143	11.849737
406.395203	1306.390503	9908.639648	2312.226318	11.692707
406.756348	1307.281982	9822.077148	2313.786865	11.820659
407.117493	1307.059082	9782.028320	2305.539307	11.781521
407.478516	1300.817749	9859.080078	2323.297607	11.947283
407.839600	1300.446289	9929.221680	2330.727783	11.940066
408.200592	1297.622681	10052.416016	2352.498291	12.049121
408.561554	1304.607178	10166.692383	2366.021484	11.977027
408.922485	1308.248047	10294.641602	2379.322021	11.918841
409.283417	1307.505005	10365.155273	2393.216553	11.986680
409.644257	1306.613403	10462.640625	2401.538330	11.958515
410.005096	1304.978638	10521.116211	2411.643555	12.007903
410.365906	1303.789917	10516.436523	2399.903564	11.897923
410.726715	1292.495728	10472.225586	2391.878906	11.976205
411.087433	1289.152222	10383.433594	2384.671631	12.046245
411.448120	1285.585693	10345.093750	2388.312256	12.172036
411.808807	1290.340942	10294.567383	2376.721191	12.065226
412.169434	1287.889160	10271.459961	2362.975342	11.967249
412.530029	1291.084106	10317.007813	2349.229248	11.723400
412.890564	1297.845581	10415.458008	2356.659424	11.612842
413.251099	1307.059204	10566.664063	2372.114502	11.502169
413.611572	1312.409058	10719.132813	2386.231689	11.415480
413.972076	1316.198364	10880.147461	2397.228760	11.303180
414.332489	1313.374878	11003.637695	2411.346436	11.330668
414.692871	1313.597778	11204.627930	2430.441895	11.291484
415.053223	1308.693726	11385.925781	2441.141357	11.237685
415.413574	1309.659790	11659.286133	2451.172607	11.029508
415.773834	1309.659668	11847.495117	2461.203369	10.927706
416.134094	1304.384277	12131.479492	2494.342285	10.990556
416.494263	1299.034424	12411.972656	2509.871582	10.895742
416.854462	1295.616455	12819.448242	2547.097412	10.859938
417.214630	1296.508179	13214.961914	2582.316650	10.788383
417.574738	1300.594849	13598.437500	2629.721924	10.807807
417.934784	1305.721802	14018.323242	2666.278809	10.702428
418.294861	1310.922974	14511.098633	2704.024414	10.553658
418.654846	1310.551514	15098.536133	2746.674072	10.415754
419.014832	1303.418335	15698.307617	2802.252686	10.412267
419.374756	1298.960205	16325.570313	2853.744873	10.346875
419.734680	1297.325562	16968.437500	2911.477783	10.300177
420.094543	1297.622925	17468.419922	2954.870361	10.248397
420.454376	1304.681519	17762.955078	2980.727783	10.183609
420.814148	1299.183105	17932.664063	2995.662842	10.199186
421.173920	1306.613403	18086.173828	2991.130127	10.039099
421.533691	1301.337769	18183.732422	2978.127197	9.932178
421.893341	1307.653442	18218.060547	2953.161865	9.730744
422.253021	1300.148926	18204.314453	2937.929688	9.688622
422.612640	1299.331665	18198.148438	2929.681885	9.647718
422.972260	1300.223267	18192.501953	2935.106201	9.678285
423.331757	1300.149048	18210.630859	2932.579834	9.653366
423.691315	1306.018921	18328.996094	2931.316406	9.547669
424.050781	1302.823853	18360.500000	2913.483643	9.442434
424.410248	1308.990967	18213.083984	2890.153076	9.353723
424.769653	1299.405884	17915.798828	2855.007568	9.361850
425.128998	1300.149048	17536.408203	2817.781982	9.347183
425.488373	1297.251221	17109.984375	2761.906250	9.262504
425.847656	1303.715576	16696.416016	2717.993408	9.187978
426.206940	1304.607300	16273.039063	2672.297119	9.137162
426.566193	1312.111694	15910.516602	2627.864258	9.012988
426.925385	1318.353149	15492.860352	2576.298096	8.874700
427.284576	1322.662720	15127.290039	2524.880615	8.708804
427.643677	1317.536011	14812.023438	2489.066650	8.681550
428.002777	1309.139648	14591.641602	2476.955566	8.792138
428.361847	1303.567017	14398.604492	2462.689453	8.851616
428.720856	1303.567017	14204.301758	2443.519287	8.836336
429.079865	1303.046753	14103.918945	2408.374023	8.634781
429.438812	1302.600952	14080.143555	2383.631348	8.460393
429.797760	1297.474243	14049.010742	2368.696533	8.400731
430.156616	1292.793091	13902.559570	2353.241455	8.409739
430.515503	1289.449463	13796.379883	2340.981689	8.407597
430.874268	1287.591919	13778.250977	2342.987549	8.449479
431.233093	1290.935547	13907.090820	2336.968994	8.291222
431.591827	1296.582520	14081.405273	2341.650146	8.174284
431.950562	1304.012695	14250.741211	2332.585205	7.944652
432.309204	1305.796021	14386.937500	2336.448975	7.878922
432.667877	1303.418213	14534.207031	2353.167236	7.934138
433.026459	1301.189087	14599.666992	2359.408447	7.957448
433.385010	1298.960083	14655.096680	2355.619141	7.911412
433.743561	1301.709351	14622.403320	2335.557373	7.761217
434.102051	1298.514282	14653.089844	2330.727539	7.729286
434.460510	1300.297607	14713.203125	2340.312744	7.753839
434.818939	1299.034546	14730.440430	2331.322266	7.685627
435.177338	1302.080933	14718.848633	2323.000244	7.609279
435.535675	1305.201660	14670.625977	2312.449219	7.536219
435.894012	1304.681519	14646.106445	2309.848633	7.534181
436.252289	1302.749634	14806.601563	2315.718506	7.501333
436.610535	1297.325562	14895.913086	2308.734131	7.437600
436.968719	1294.130493	15168.083008	2321.142578	7.402448
437.326935	1296.731079	15418.631836	2335.854492	7.358241
437.685028	1298.960083	15733.526367	2355.544678	7.319822
438.043152	1300.669067	15986.898438	2360.894775	7.219182
438.401215	1302.972534	16245.843750	2378.727539	7.199119
438.759277	1306.316162	16580.279297	2397.600342	7.144735
439.117249	1310.922852	17076.027344	2435.940430	7.136125
439.475250	1309.436768	17483.429688	2450.503662	7.054948
439.833130	1306.761963	17900.044922	2471.234375	7.017734
440.191071	1299.777466	18022.867188	2470.416992	7.000139
440.548889	1298.737183	18116.267578	2469.970947	6.964362
440.906708	1298.737183	18020.789063	2456.373535	6.922812
441.264496	1299.628906	17846.251953	2435.123047	6.862392
441.622223	1295.170654	17550.005859	2419.445313	6.916555
441.979950	1289.449341	17254.800781	2406.145264	6.994496
442.337616	1284.396851	17044.300781	2387.792236	7.001282
442.695251	1288.929321	16889.677734	2358.294189	6.854574
443.052887	1290.489624	16810.617188	2344.770996	6.792994
443.410461	1299.034546	16924.968750	2352.572998	6.742243
443.768005	1296.359619	17115.705078	2360.077393	6.724158
444.125458	1304.830200	17400.658203	2375.606445	6.652508
444.482941	1300.000366	17722.312500	2383.111084	6.595361
444.840393	1299.406006	18217.392578	2404.213135	6.530370
445.197754	1289.078003	18656.150391	2423.085938	6.529644
445.555084	1290.712524	19001.658203	2446.194092	6.524110
445.912415	1292.049927	19237.048828	2457.413818	6.494088
446.269714	1293.015991	19362.546875	2462.912354	6.474414
446.626953	1298.737305	19373.244141	2459.197021	6.420422
446.984161	1290.340942	19192.169922	2464.249756	6.557480
447.341309	1301.114990	18986.945313	2455.333252	6.526232
447.698456	1298.068481	18693.300781	2445.971436	6.598951
448.055542	1306.539185	18478.568359	2414.763916	6.453662
448.412598	1300.520630	18126.964844	2382.071045	6.427683
448.769653	1303.789917	17744.900391	2351.681152	6.373603
449.126617	1304.830200	17308.595703	2330.504883	6.408958
449.483582	1304.161499	17031.669922	2313.489502	6.417596
449.840515	1300.669067	16817.900391	2296.325439	6.416456
450.197388	1304.830078	16626.349609	2294.691162	6.460593
450.554230	1308.545166	16485.025391	2277.898438	6.387208
450.911041	1307.133423	16419.341797	2274.480469	6.401097
451.267822	1303.121216	16493.271484	2257.390869	6.282161
451.624573	1301.189331	16564.751953	2268.982178	6.340544
451.981262	1297.102539	16534.882813	2268.016113	6.371752
452.337921	1297.176880	16387.984375	2257.985352	6.366846
452.694580	1291.975708	16051.096680	2234.208252	6.384069
453.051147	1293.684692	15859.471680	2216.450195	6.335157
453.407715	1293.833374	15529.195313	2202.629883	6.384077
453.764221	1296.210938	15444.563477	2193.416260	6.341412
454.120728	1296.731079	15109.234375	2171.719727	6.334758
454.477142	1295.467896	15028.839844	2160.574219	6.299300
454.833557	1296.879639	14900.148438	2150.097656	6.272154
455.189911	1298.142822	14926.377930	2144.079346	6.207234
455.546265	1300.000366	14986.338867	2148.908936	6.202598
455.902557	1297.771362	15038.945313	2159.385742	6.270311
456.258820	1296.953979	15269.653320	2174.617920	6.281277
456.615051	1295.839478	15565.602539	2200.400879	6.339008
456.971252	1293.536133	15915.198242	2221.948486	6.349568
457.327393	1297.845581	16440.443359	2264.821045	6.385797
457.683502	1298.142822	17044.970703	2299.669189	6.360178
458.039612	1303.566895	17978.287109	2353.613037	6.297234
458.395630	1293.015991	18833.138672	2401.760986	6.321193
458.751648	1295.393677	19601.873047	2440.324219	6.254237
459.107605	1294.056274	20207.812500	2471.828369	6.227066
459.463562	1301.783569	20406.275391	2476.806885	6.150508
459.819458	1300.149048	20271.193359	2464.695557	6.138547
460.175323	1301.932251	19698.466797	2441.736084	6.195753
460.531158	1301.114868	19034.869141	2412.460693	6.266839
460.886932	1301.337769	18316.808594	2385.711670	6.372870
461.242676	1297.325562	17619.626953	2336.672119	6.367647
461.598419	1303.567017	17086.876953	2303.087158	6.332767
461.954102	1300.074707	16582.955078	2262.369385	6.296553
462.309723	1296.731079	16224.592773	2236.066162	6.292496
462.665344	1291.529907	15956.954102	2216.152832	6.304781
463.020905	1291.529907	15822.541992	2211.620361	6.331909
463.376373	1291.232788	15761.390625	2218.976318	6.411427
463.731873	1294.799194	15723.199219	2226.035156	6.454187
464.087341	1293.090332	15751.731445	2220.982666	6.417563
464.442749	1298.291382	15886.665039	2224.920654	6.351834
464.798126	1290.489746	15990.093750	2220.685303	6.328032
465.153503	1290.563843	16136.098633	2236.883545	6.374440
465.508820	1294.056152	16277.719727	2243.793701	6.338487
465.864105	1300.594727	16398.982422	2268.090820	6.407943
466.219330	1304.458618	16594.917969	2274.926270	6.346884
466.574524	1300.371948	16643.140625	2287.334717	6.432755
466.929657	1296.805420	16534.437500	2270.245361	6.388394
467.284790	1295.467896	16326.983398	2272.697266	6.501203
467.639893	1297.028320	16088.546875	2252.487061	6.459504
467.994934	1300.371948	15914.454102	2238.146729	6.416925
468.349945	1301.412109	15716.585938	2228.338867	6.430216
468.704926	1304.532837	15587.448242	2222.320313	6.425771
469.059875	1296.433960	15477.108398	2219.942627	6.512445
469.414764	1297.028320	15435.276367	2204.338867	6.417418
469.769653	1296.211060	15418.187500	2209.242920	6.465326
470.124451	1299.629028	15518.718750	2214.815674	6.436324
470.479248	1295.022217	15575.930664	2229.676025	6.544778
470.834015	1292.124390	15623.335938	2232.425293	6.561210
471.188721	1292.347290	15817.637695	2250.034912	6.593243
471.543365	1294.873535	16086.984375	2270.394043	6.594870
471.898010	1300.669189	16310.859375	2292.981689	6.610926
472.252625	1306.316162	16526.115234	2308.288330	6.583347
472.607178	1308.396606	16696.044922	2316.461670	6.551131
472.961700	1300.817749	16793.232422	2315.718750	6.550954
473.316193	1299.257446	16802.742188	2327.384033	6.631584
473.670654	1300.520508	16750.359375	2322.703125	6.616138
474.025055	1304.087036	16867.757813	2342.913330	6.674687
474.379456	1303.789795	16966.431641	2344.027832	6.641523
474.733795	1304.309937	17108.423828	2360.448730	6.682683
475.088104	1302.006592	17350.947266	2365.798584	6.628425
475.442383	1298.588623	17685.162109	2394.033691	6.685016
475.796570	1293.907593	18008.007813	2430.516357	6.800299
476.150787	1296.062500	18396.166016	2454.144775	6.772370
476.504944	1296.582520	18684.533203	2455.853760	6.667095
476.859070	1296.359497	18981.521484	2465.215576	6.609247
477.213135	1296.730957	19186.521484	2491.295898	6.677355
477.567200	1294.353394	19450.669922	2533.351318	6.824060
477.921173	1301.040527	19764.302734	2549.251953	6.760514
478.275146	1298.885864	20039.966797	2567.976318	6.771704
478.629089	1306.316284	20320.083984	2585.066162	6.725389
478.983002	1297.251099	20719.164063	2629.945068	6.861806
479.336823	1295.765137	21259.791016	2659.071533	6.828815
479.690643	1294.353394	21907.931641	2696.148438	6.800348
480.044403	1303.344116	22753.498047	2730.253174	6.652209
480.398163	1310.031372	23886.244141	2808.940186	6.639328
480.751862	1310.551392	25531.828125	2924.778076	6.664499
481.105499	1311.963135	27669.814453	3089.804443	6.745016
481.459137	1306.241821	30815.791016	3307.808594	6.782777
481.812744	1306.539063	34931.792969	3585.626709	6.777905
482.166290	1303.344116	39897.363281	3926.973389	6.798020
482.519806	1300.669067	44787.750000	4267.502441	6.822333
482.873291	1298.291382	48945.207031	4581.133789	6.889937
483.226715	1292.570190	51703.769531	4816.005371	6.989389
483.580139	1300.594849	52695.125000	4922.629395	7.047510
483.933502	1306.613403	51953.578125	4898.555176	7.092117
484.286804	1313.597778	49816.332031	4734.643555	7.053305
484.640106	1307.356445	46908.863281	4528.750488	7.064227
484.993347	1302.229614	43996.941406	4296.926758	7.014211
485.346558	1300.148926	41926.570313	4143.565430	6.998934
485.699738	1303.418335	41045.566406	4063.615967	6.945266
486.052887	1296.582397	41389.515625	4093.782471	6.976791
486.405975	1299.926147	42308.117188	4157.979980	6.969471
486.759064	1297.102661	43244.480469	4243.130859	7.023152
487.112061	1310.699951	43626.324219	4284.963867	7.028760
487.464996	1305.052979	43235.046875	4274.710449	7.082418
487.817963	1304.607178	42071.535156	4201.224609	7.105312
488.170868	1297.325562	40258.031250	4081.746094	7.146740
488.523743	1299.405884	38223.769531	3937.747070	7.145259
488.876587	1301.040527	36395.328125	3805.785156	7.137186
489.229401	1307.950684	35259.390625	3717.885498	7.098181
489.582153	1307.579224	35020.136719	3704.584961	7.110127
489.934845	1301.263550	35588.550781	3750.801514	7.144158
490.287537	1292.347290	36748.714844	3831.419922	7.161119
490.640198	1291.604248	37937.929688	3919.022705	7.169664
490.992798	1297.399780	38531.605469	3969.771484	7.177195
491.345337	1293.833374	38232.246094	3959.443359	7.216362
491.697876	1299.257324	36966.644531	3887.369385	7.256242
492.050354	1288.632080	35090.871094	3754.813721	7.295912
492.402832	1288.186279	32666.896484	3597.366211	7.359066
492.755219	1281.424683	30129.531250	3421.194580	7.417367
493.107605	1292.049927	27807.943359	3261.146484	7.426099
493.459930	1297.399780	26052.763672	3126.138672	7.387243
493.812225	1307.282104	24816.884766	3028.653320	7.321992
494.164490	1311.740356	24123.791016	2982.139648	7.322443
494.516724	1309.585449	23778.357422	2954.499023	7.320888
494.868896	1304.532959	23764.537109	2955.613525	7.351203
495.221039	1298.068481	23942.419922	2963.489502	7.354686
495.573120	1294.873535	24145.412109	2979.390625	7.371892
495.925201	1293.387329	24340.162109	2995.291260	7.384564
496.277222	1296.433838	24487.650391	3004.579346	7.365485
496.629211	1302.600952	24556.900391	3017.433594	7.374261
496.981140	1301.486450	24481.632813	3012.529541	7.381503
497.333069	1305.572998	24227.294922	2989.941650	7.348351
497.684967	1300.743286	23833.937500	2970.325439	7.409434
498.036804	1298.514282	23381.431641	2945.508545	7.458228
498.388580	1288.631958	22929.671875	2932.579834	7.596437
498.740326	1297.548340	22530.515625	2901.447021	7.553813
499.092072	1297.399780	22086.560547	2858.053955	7.507057
499.443756	1306.316040	21672.320313	2827.961670	7.471498
499.795410	1297.919922	21341.376953	2800.766846	7.497943
500.147003	1304.384277	21104.423828	2791.924805	7.512816
500.498566	1302.080933	20857.146484	2768.519531	7.499022
500.850098	1302.526733	20638.248047	2758.711670	7.531061
501.201599	1299.777466	20472.107422	2743.479492	7.530133
501.553009	1295.096436	20387.849609	2740.953125	7.572803
501.904449	1295.987915	20373.138672	2738.278076	7.560302
502.255859	1286.105835	20416.232422	2749.572266	7.650061
502.607178	1289.077881	20517.431641	2752.098633	7.608664
502.958405	1291.232666	20571.970703	2752.172607	7.577199
503.309692	1301.709473	20638.324219	2748.754883	7.483447
503.660919	1301.560913	20715.300781	2755.070313	7.487014
504.012115	1308.693848	20688.998047	2759.157227	7.484213
504.363251	1304.978638	20651.996094	2765.101563	7.547018
504.714294	1306.687622	20541.359375	2754.773438	7.528518
505.065369	1298.811523	20549.830078	2755.887939	7.568827
505.416443	1304.458618	20448.482422	2748.754883	7.544372
505.767395	1300.743530	20434.437500	2748.457764	7.566308
506.118317	1301.932373	20356.865234	2741.473389	7.554689
506.469238	1301.114990	20504.802734	2758.562744	7.589416
506.820160	1302.303833	20642.927734	2782.116943	7.651321
507.170929	1304.681519	20899.718750	2809.831299	7.681281
507.521729	1298.365723	21170.775391	2819.788330	7.655954
507.872498	1300.743530	21424.519531	2836.655029	7.632323
508.223236	1299.777466	21643.044922	2862.884033	7.683655
508.573883	1302.675293	21776.123047	2874.846436	7.679074
508.924500	1301.709351	21939.958984	2896.171631	7.725763
509.275116	1297.251221	22103.500000	2900.704102	7.706593
509.625702	1299.257446	22311.470703	2917.422119	7.701067
509.976196	1303.715576	22494.626953	2919.280029	7.623855
510.326660	1309.362549	22707.802734	2942.239258	7.630821
510.677124	1310.625732	22846.453125	2957.099854	7.645279
511.027557	1301.189331	23031.687500	2972.406250	7.690652
511.377869	1302.378052	23151.390625	2963.787109	7.604047
511.728180	1299.257324	23168.775391	2969.656982	7.638027
512.078430	1303.864136	23074.634766	2967.725342	7.642638
512.428650	1302.675293	22947.281250	2957.099609	7.643587
512.778931	1305.052979	22827.802734	2938.969971	7.591581
513.129028	1305.127319	22663.072266	2922.029053	7.570493
513.479126	1306.910522	22550.132813	2913.781250	7.564157
513.829285	1306.910522	22443.134766	2906.053711	7.565888
514.179382	1304.235718	22381.984375	2907.614014	7.606972
514.529297	1300.149048	22353.750000	2913.781250	7.664400
514.879272	1297.251221	22483.929688	2928.492920	7.699375
515.229187	1302.006714	22700.447266	2943.056396	7.669015
515.579163	1297.176880	23095.291016	2978.350342	7.712472
515.928955	1301.189331	23562.210938	3017.284912	7.708971
516.278748	1305.275879	24191.033203	3062.906982	7.680021
516.628540	1307.876465	24941.267578	3105.184814	7.604953
516.978333	1306.018921	25831.861328	3159.128662	7.555744
517.327942	1301.709351	26734.119141	3219.611328	7.541173
517.677612	1298.811523	27384.937500	3280.167969	7.595442
518.027222	1288.260620	27780.226563	3315.684570	7.652977
518.376831	1292.793091	27773.687500	3322.966064	7.666557
518.726379	1292.495728	27529.603516	3307.436768	7.679738
519.075867	1299.257324	26945.882813	3282.768555	7.734005
519.425293	1297.548462	26346.111328	3243.462158	7.768564
519.774658	1308.991089	25710.302734	3194.571289	7.727372
520.124084	1311.665894	25168.708984	3149.469482	7.703401
520.473389	1307.133423	24682.250000	3103.996094	7.687075
520.822693	1304.012817	24324.037109	3073.755127	7.687839
521.171997	1296.285278	24142.291016	3053.841797	7.693058
521.521240	1297.474121	24113.240234	3056.591064	7.710094
521.870361	1287.591797	24227.666016	3061.197510	7.731473
522.219482	1293.758911	24428.431641	3065.953125	7.660339
522.568604	1298.588623	24691.833984	3089.432617	7.655389
522.917664	1306.910645	25091.212891	3117.147705	7.611058
523.266724	1302.229492	25742.103516	3164.775635	7.620932
523.615662	1295.393677	26656.474609	3223.029053	7.600762
523.964600	1287.889038	27725.615234	3299.412109	7.608533
524.313538	1292.792969	28940.166016	3390.433350	7.587124
524.662354	1290.638184	30190.607422	3483.832031	7.588914
525.011169	1297.176880	31469.876953	3574.406982	7.547319
525.359985	1295.468018	32678.263672	3666.839111	7.556278
525.708740	1301.263550	33952.628906	3758.454834	7.525539
526.057434	1303.492554	35522.269531	3881.574219	7.534113
526.406067	1305.127197	37582.093750	4020.223389	7.484353
526.754700	1303.566895	40353.808594	4202.116211	7.422616
527.103333	1307.059082	43569.480469	4450.955566	7.438988
527.451782	1306.910522	46917.562500	4734.197266	7.514224
527.800293	1303.566772	49573.363281	4988.758789	7.634571
528.148743	1300.000366	51118.191406	5128.225098	7.684391
528.497131	1303.195313	51113.062500	5119.309082	7.661361
528.845642	1304.235718	49604.644531	4993.812012	7.638809
529.193909	1297.919922	46928.707031	4776.698730	7.623754
529.542175	1293.536011	43509.515625	4536.626953	7.682140
529.890503	1293.610352	40068.484375	4281.916992	7.706812
530.238770	1295.393677	37094.218750	4065.176025	7.737076
530.586914	1297.845581	35050.078125	3891.307861	7.683825
530.934998	1297.399780	34026.484375	3782.751221	7.593709
531.283142	1299.406006	33945.199219	3762.466797	7.544803
531.631226	1304.755737	34600.996094	3799.692627	7.493149
531.979248	1307.653564	35762.417969	3881.351318	7.469788
532.327148	1307.059204	36972.957031	3953.053467	7.418835
532.675110	1301.858032	37806.414063	4010.340820	7.419575
533.023071	1299.183105	37905.089844	4026.835938	7.451401
533.370850	1300.074707	37146.976563	3976.310303	7.465737
533.718689	1301.635132	35838.582031	3895.023193	7.509026
534.066467	1308.322388	34203.699219	3787.581299	7.536800
534.414246	1308.396606	32800.191406	3669.068359	7.496149
534.761963	1306.464844	31772.585938	3571.211914	7.433658
535.109619	1303.269653	31257.076172	3527.001953	7.423872
535.457153	1299.703125	31045.384766	3516.673584	7.453084
535.804749	1295.616577	30925.685547	3513.552734	7.485423
536.152344	1297.251221	30806.056641	3493.193604	7.441651
536.499817	1301.040649	30442.271484	3463.026611	7.418993
536.847229	1298.514282	29878.015625	3421.937500	7.429882
537.194641	1293.238770	29090.330078	3369.256836	7.468472
537.542114	1289.226440	28337.646484	3325.418213	7.527951
537.889404	1295.839478	27749.468750	3271.177490	7.467172
538.236694	1295.096558	27381.369141	3242.125000	7.463804
538.583984	1296.433960	27539.041016	3234.992188	7.387064
538.931213	1298.068481	28300.716797	3279.796631	7.339014
539.278381	1299.331665	29757.273438	3375.944336	7.297129
539.625488	1302.080933	31637.726563	3520.685791	7.313525
539.972595	1303.121216	33984.355469	3684.895264	7.287895
540.319641	1300.892090	36299.183594	3859.283203	7.310045
540.666687	1305.721802	38072.121094	3979.876709	7.273366
541.013611	1303.121216	39001.718750	4059.232178	7.310911
541.360596	1302.972534	38985.597656	4056.408936	7.306913
541.707458	1299.554565	38306.621094	4004.470947	7.309189
542.054260	1298.960205	36991.312500	3907.505615	7.308416
542.401062	1300.891968	35382.957031	3793.599609	7.313839
542.747864	1294.873535	33564.917969	3668.622314	7.355889
543.094666	1290.861206	31741.898438	3538.444092	7.380974
543.441284	1290.340942	30006.632813	3403.362061	7.358266
543.787903	1291.307007	28575.041016	3312.415283	7.407741
544.134460	1299.108765	27417.109375	3227.784424	7.384469
544.481079	1297.771240	26645.994141	3151.772705	7.314128
544.827637	1300.743408	26137.244141	3081.705811	7.170746
545.174072	1299.108765	25863.884766	3064.615967	7.187150
545.520508	1305.498901	25778.509766	3075.315430	7.231707
545.866943	1305.647461	25726.203125	3077.098633	7.253935
546.213318	1306.390503	25600.185547	3057.185547	7.206758
546.559631	1299.257446	25304.609375	3034.968994	7.230519
546.905823	1299.183105	24775.054688	3004.653564	7.264781
547.252136	1300.223267	24013.228516	2966.090576	7.334420
547.598389	1310.551392	23105.693359	2896.394531	7.276131
547.944458	1311.442993	22203.732422	2833.237061	7.283998
548.290588	1305.796021	21328.818359	2761.832031	7.271810
548.636658	1300.594849	20583.117188	2706.996826	7.293662
548.982727	1294.279175	19908.150391	2667.839111	7.379228
549.328735	1299.628906	19466.345703	2627.864502	7.311368
549.674622	1303.418335	19067.416016	2600.000732	7.298934
550.020569	1305.127319	18861.673828	2562.700928	7.162990
550.366455	1294.130615	18676.806641	2550.292236	7.226515
550.712280	1291.678589	18658.304688	2552.595703	7.260576
551.058044	1295.319458	18762.701172	2571.765625	7.307599
551.403748	1301.560791	18916.953125	2587.740967	7.301456
551.749512	1300.966309	19085.917969	2601.783936	7.314148
552.095154	1301.932251	19197.296875	2597.251709	7.238296
552.440735	1294.130493	19280.367188	2592.198975	7.217010
552.786316	1295.542358	19250.943359	2582.168213	7.165676
553.131897	1296.136719	19101.445313	2571.840088	7.164736
553.477417	1308.545288	18798.142578	2549.549072	7.095668
553.822815	1306.316162	18407.830078	2516.781982	7.078121
554.168213	1301.337891	18012.316406	2501.475342	7.181731
554.513672	1296.582397	17686.275391	2485.425781	7.253603
554.859009	1295.467896	17421.312500	2469.599365	7.281054
555.204285	1302.229492	17238.082031	2438.615234	7.131001
555.549500	1301.486450	17108.052734	2424.572021	7.105184
555.894714	1298.588623	17032.783203	2408.671387	7.055225
556.239990	1301.783691	16914.271484	2400.572510	7.037884
556.585022	1308.396606	16798.730469	2391.804688	6.994091
556.930115	1308.248047	16658.076172	2394.925293	7.079410
557.275146	1300.669067	16515.042969	2396.559814	7.202996
557.620178	1294.279053	16407.304688	2381.402100	7.193285
557.965149	1297.474121	16348.159180	2367.284668	7.108052
558.310059	1294.947632	16304.542969	2359.408447	7.091869
558.654968	1294.650513	16252.754883	2366.541504	7.165955
558.999756	1292.272949	16263.973633	2354.801758	7.096914
559.344604	1300.669067	16323.711914	2357.327881	7.033587
559.689331	1297.399780	16411.537109	2357.031006	7.010861
560.033997	1297.399780	16471.574219	2372.783203	7.086932
560.378723	1291.381348	16559.623047	2374.269287	7.092421
560.723389	1300.000488	16583.548828	2372.931641	7.020170
561.067932	1309.808472	16570.025391	2365.798584	6.919889
561.412476	1309.659790	16489.333984	2360.448975	6.922344
561.757019	1306.390381	16443.490234	2362.826660	6.979120
562.101501	1300.669067	16412.058594	2368.027832	7.063273
562.445862	1304.904297	16369.928711	2359.334473	6.999193
562.790222	1310.031250	16331.589844	2353.093018	6.943765
563.134644	1308.470947	16337.088867	2353.315674	6.952367
563.478943	1303.269775	16423.724609	2360.968994	6.995155
563.823181	1293.313110	16563.117188	2361.637939	6.996323
564.167358	1296.433838	16749.839844	2363.792480	6.906948
564.511536	1301.783569	17024.314453	2386.900635	6.901669
564.855774	1310.774292	17379.626953	2406.887939	6.821356
565.199768	1308.693848	17720.158203	2429.921875	6.831980
565.543823	1301.709473	18013.132813	2431.407959	6.760037
565.887817	1297.251099	18203.572266	2446.045654	6.795060
566.231812	1304.087036	18246.074219	2439.432861	6.701374
566.575745	1312.037476	18121.468750	2440.324219	6.712224
566.919617	1313.895020	17891.576172	2427.247070	6.715970
567.263428	1306.984863	17568.880859	2418.033447	6.832220
567.607239	1301.189331	17345.302734	2404.213135	6.874944
567.950989	1298.811646	17129.673828	2384.374512	6.857257
568.294678	1301.560791	17026.841797	2381.922607	6.870223
568.638367	1305.053101	16910.408203	2382.516846	6.904449
568.981995	1305.350220	16894.062500	2371.594238	6.839847
569.325623	1305.573120	16978.839844	2358.071289	6.715244
569.669128	1302.155151	17132.201172	2349.749268	6.617758
570.012573	1303.864136	17334.826172	2376.052490	6.688235
570.356140	1301.783691	17583.740234	2393.216309	6.703326
570.699524	1303.566895	17845.359375	2410.826172	6.693708
571.042908	1304.607300	18163.003906	2416.547363	6.595764
571.386230	1308.322266	18351.806641	2433.859863	6.603917
571.729492	1306.167480	18438.740234	2445.005127	6.647208
572.072815	1305.944702	18377.515625	2449.166260	6.696640
572.416016	1300.149048	18306.482422	2451.915283	6.772572
572.759094	1300.446289	18132.761719	2445.525391	6.802861
573.102234	1297.251343	17909.556641	2432.299561	6.832575
573.445374	1298.811646	17670.748047	2405.773438	6.761337
573.788391	1304.012817	17587.232422	2395.519775	6.703262
574.131409	1299.628906	17559.294922	2393.885010	6.729880
574.474365	1295.244995	17516.572266	2386.603516	6.727924
574.817261	1295.616577	17426.591797	2378.058594	6.710332
575.160156	1305.647339	17230.875000	2363.272217	6.641191
575.502930	1309.362549	16974.158203	2350.492432	6.646304
575.845703	1311.145874	16687.126953	2328.795898	6.618440
576.188477	1310.328491	16416.814453	2316.610352	6.661257
576.531250	1310.179810	16141.671875	2303.904541	6.700099
576.873901	1304.161255	15793.786133	2279.607422	6.732032
577.216431	1296.508179	15442.335938	2244.610840	6.702348
577.559082	1297.251343	15111.019531	2217.490479	6.661753
577.901611	1299.554565	14824.507813	2194.605225	6.617773
578.244080	1300.594849	14568.312500	2175.286621	6.592632
578.586487	1304.830078	14382.257813	2154.258789	6.495381
578.928955	1307.505005	14192.934570	2156.190674	6.586398
579.271301	1314.860962	14008.515625	2148.834717	6.570005
579.613647	1314.786621	13793.484375	2137.317627	6.591481
579.955872	1305.573120	13637.745117	2116.067139	6.572192
580.298157	1301.412231	13515.368164	2110.940430	6.627895
580.640320	1295.245117	13485.424805	2103.807373	6.632899
580.982483	1299.926147	13439.429688	2097.120117	6.566940
581.324524	1301.337891	13430.291992	2091.918945	6.518130
581.666626	1306.390503	13349.226563	2092.067383	6.524019
582.008728	1311.814575	13284.731445	2086.569092	6.470892
582.350647	1314.935181	13207.011719	2079.361572	6.428031
582.692566	1311.220093	13143.409180	2072.154053	6.431049
583.034424	1307.653564	13087.979492	2064.798096	6.427195
583.376343	1299.554688	12992.128906	2057.219238	6.479878
583.718201	1298.885864	12910.395508	2059.671143	6.551993
584.059937	1294.279175	12801.168945	2055.064697	6.611565
584.401611	1294.204834	12772.934570	2048.228760	6.568880
584.743347	1291.455688	12739.200195	2033.070923	6.478265
585.085022	1292.272949	12740.242188	2028.984375	6.435303
585.426514	1294.353516	12722.409180	2034.482788	6.476423
585.768127	1301.858032	12746.186523	2042.061890	6.467866
586.109619	1306.836182	12747.152344	2039.312500	6.402588
586.451172	1312.037476	12759.487305	2037.380737	6.336287
586.792542	1306.093140	12779.250000	2028.612915	6.297480
587.133850	1304.012695	12817.070313	2043.622070	6.424092
587.475220	1299.554565	12897.540039	2039.981323	6.384098
587.816589	1295.913818	12954.085938	2052.835693	6.492629
588.157776	1293.684692	13059.296875	2044.290649	6.379659
588.498962	1289.969604	13121.860352	2052.241455	6.442519
588.840210	1291.975708	13196.609375	2056.104980	6.418755
589.181335	1291.232666	13264.297852	2066.358643	6.473914
589.522400	1298.142700	13256.273438	2072.971436	6.479514
589.863403	1300.371948	13237.028320	2080.773193	6.537855
590.204407	1303.864136	13164.436523	2076.017822	6.510257
590.545410	1304.458618	13124.535156	2060.711670	6.398039
590.886353	1303.938354	13028.536133	2048.451660	6.350011
591.227112	1304.012695	12916.339844	2043.250488	6.365974
591.567932	1301.783691	12819.745117	2040.129883	6.410390
591.908752	1304.087036	12760.823242	2031.733521	6.351254
592.249512	1301.858032	12798.495117	2031.807983	6.349248
592.590149	1298.737183	12816.699219	2039.015259	6.427162
592.930786	1301.040649	12917.007813	2035.374512	6.321763
593.271423	1301.263550	12989.750000	2032.848145	6.259019
593.612000	1304.607178	13127.284180	2034.036987	6.169752
593.952576	1295.542358	13261.995117	2042.879272	6.245267
594.292969	1287.071655	13414.687500	2056.179443	6.341789
594.633484	1280.978882	13592.790039	2062.049072	6.344072
594.973877	1288.855103	13842.745117	2077.578369	6.282701
595.314209	1306.762085	14123.832031	2096.674316	6.162970
595.654480	1310.254150	14447.124023	2114.878174	6.124929
595.994812	1307.950806	14736.235352	2137.689209	6.179035
596.335022	1295.616577	14967.911133	2142.370361	6.193209
596.675171	1297.771362	15037.014648	2149.726318	6.200887
597.015320	1296.359741	14955.428711	2131.819336	6.116519
597.355408	1296.508179	14673.747070	2114.358154	6.113743
597.695496	1302.972534	14286.629883	2088.946777	6.053566
598.035461	1306.539185	13762.125977	2071.411133	6.140794
598.375366	1309.139771	13309.770508	2052.464111	6.194044
598.715271	1299.406128	12900.809570	2035.300171	6.343147
599.055176	1301.560669	12610.434570	2021.776978	6.368594
599.395081	1306.836304	12374.747070	2002.086792	6.281678
599.734802	1310.922852	12205.335938	1983.956909	6.177791
600.074524	1305.424438	12125.832031	1966.718750	6.111547
600.414246	1298.885864	12068.024414	1956.613403	6.107522
600.753906	1298.439941	12099.007813	1957.282349	6.100071
601.093506	1304.087036	12102.278320	1956.910767	6.045677
601.433044	1309.659790	12233.645508	1969.022095	6.035913
601.772583	1309.065430	12439.242188	1981.133423	6.038251
602.112122	1309.659790	12751.981445	1992.427368	5.967037
602.451538	1303.046875	13106.703125	2006.470703	5.959373
602.790894	1299.257446	13443.071289	2019.547974	5.931337
603.130310	1297.994263	13873.358398	2044.365112	5.935183
603.469604	1298.885864	14268.128906	2068.141846	5.931387
603.808838	1301.932251	14642.094727	2089.021240	5.900146
604.148010	1296.210938	14835.578125	2102.469727	5.954922
604.487305	1298.737305	14904.531250	2112.203369	5.978821
604.826416	1299.406006	14800.877930	2117.107422	6.056387
605.165527	1301.560669	14578.416992	2102.767090	6.034609
605.504456	1299.926147	14208.536133	2076.760986	6.017959
605.843445	1298.588623	13789.320313	2042.581665	5.956361
606.182434	1299.554688	13324.409180	2015.981445	5.957883
606.521423	1303.492676	12935.956055	1996.216797	5.955094
606.860229	1312.334595	12608.057617	1985.517212	5.959624
607.199036	1310.848633	12429.285156	1976.229492	5.984482
607.537903	1311.517456	12367.390625	1961.220337	5.876541
607.876648	1303.492676	12465.620117	1962.557739	5.904476
608.215271	1316.272827	12641.418945	1966.272949	5.739441
608.553955	1315.083862	12845.676758	1988.266602	5.838232
608.892578	1313.077637	12989.006836	1988.638062	5.785924
609.231140	1303.343872	13064.945313	2004.464478	5.961098
609.569641	1297.028198	13016.647461	1999.337769	5.992597
609.908081	1300.446167	12892.488281	2008.922729	6.111750
610.246521	1292.421509	12636.367188	1990.495605	6.153715
610.584961	1297.474121	12352.828125	1978.458496	6.159770
610.923340	1292.347290	12010.218750	1949.331909	6.129805
611.261597	1296.953979	11703.050781	1933.059570	6.112816
611.599854	1292.867432	11427.757813	1908.985474	6.079178
611.938110	1301.709351	11215.625000	1896.651245	6.001079
612.276245	1301.115112	11009.656250	1880.230347	5.965008
612.614319	1309.808350	10847.973633	1870.868164	5.882262
612.952393	1304.904297	10679.455078	1852.515259	5.841464
613.290466	1308.545288	10589.772461	1842.038696	5.748091
613.628479	1294.947754	10469.773438	1834.608398	5.881971
613.966370	1293.238892	10401.339844	1837.654907	5.977273
614.304260	1294.353394	10307.569336	1838.026367	6.031953
614.642151	1303.269653	10230.741211	1837.506226	5.984187
614.979980	1304.012817	10158.741211	1825.171997	5.885660
615.317749	1295.839478	10107.622070	1818.707642	5.933739
615.655396	1288.854858	10080.651367	1814.026733	5.973431
615.993164	1294.576294	10076.340820	1825.543457	6.046247
616.330811	1302.823853	10083.102539	1818.707642	5.875484
616.668396	1311.591675	10089.121094	1809.939819	5.677545
617.005859	1305.796021	10106.433594	1794.187866	5.549505
617.343445	1300.297729	10125.901367	1799.611938	5.657565
617.680908	1295.170776	10162.532227	1805.407593	5.754100
618.018311	1297.845581	10166.990234	1814.026489	5.819963
618.355652	1305.870239	10162.234375	1816.032837	5.760406
618.692993	1306.910522	10113.194336	1815.066895	5.770383
619.030273	1317.164429	10098.706055	1807.339478	5.581879
619.367554	1314.563721	10063.783203	1799.166016	5.538806
619.704712	1309.659668	10074.408203	1803.327026	5.632419
620.041870	1297.325562	10025.219727	1799.834595	5.757506
620.379028	1285.957397	9993.270508	1801.692261	5.923008
620.716064	1285.808594	9933.976563	1795.153687	5.889630
621.053040	1284.099731	9897.418945	1797.828613	5.964355
621.389954	1294.873535	9884.267578	1793.964844	5.810553
621.726929	1305.275879	9839.686523	1786.906250	5.643394
622.063843	1308.099487	9830.769531	1786.534546	5.613676
622.400635	1299.554565	9808.106445	1779.624512	5.642205
622.737427	1290.415405	9841.766602	1784.899902	5.782530
623.074219	1293.090210	9815.909180	1789.135254	5.820199
623.410889	1301.635010	9790.050781	1789.283813	5.744874
623.747559	1308.842407	9816.131836	1796.713989	5.734748
624.084167	1307.802246	9886.868164	1786.608887	5.581104
624.420715	1302.155273	10039.040039	1794.708008	5.637624
624.757324	1299.628906	10159.708008	1791.438599	5.550850
625.093750	1297.102539	10338.554688	1803.401367	5.599751
625.430176	1307.133423	10508.188477	1817.221680	5.543802
625.766602	1310.402832	10698.551758	1828.441406	5.518006
626.102905	1310.402710	10856.594727	1847.165649	5.622796
626.439209	1300.297607	10960.543945	1856.007690	5.752546
626.775452	1297.994263	11010.995117	1854.818848	5.732776
627.111694	1298.217163	10993.608398	1847.685913	5.667319
627.447876	1293.907593	10917.373047	1840.181274	5.676476
627.783997	1293.981812	10794.178711	1843.524902	5.784544
628.120056	1289.523804	10656.124023	1844.416504	5.924163
628.456055	1293.833374	10489.760742	1844.193726	5.984827
628.792053	1293.981812	10337.589844	1829.853149	5.925415
629.128052	1295.096313	10194.481445	1813.506470	5.825236
629.463928	1294.278931	10110.520508	1802.063843	5.759653
629.799744	1289.226440	10036.068359	1794.633667	5.778168
630.135559	1294.799194	9967.635742	1790.026855	5.710100
630.471375	1299.554565	9834.114258	1781.036255	5.641553
630.807068	1309.139648	9717.161133	1787.723511	5.691991
631.142700	1306.984863	9619.303711	1773.011597	5.606459
631.478333	1305.796021	9529.249023	1772.937134	5.680595
631.813965	1298.068481	9478.054688	1760.751587	5.656282
632.149475	1299.182983	9418.463867	1756.442017	5.631768
632.484924	1303.715576	9430.426758	1750.348999	5.495870
632.820435	1305.870361	9426.042969	1754.361328	5.523170
633.155884	1301.560791	9440.680664	1765.432617	5.699287
633.491150	1293.164551	9503.393555	1767.884644	5.782057
633.826477	1291.455566	9523.157227	1762.237671	5.719135
634.161804	1295.690918	9536.458008	1760.231445	5.637103
634.497009	1302.749634	9451.157227	1753.469849	5.531390
634.832153	1305.127319	9355.084961	1745.668091	5.472585
635.167297	1308.842407	9238.948242	1741.061401	5.450356
635.502380	1302.006592	9141.612305	1736.306030	5.539813
635.837463	1294.650757	9064.188477	1733.928345	5.653845
636.172424	1292.718750	9029.118164	1735.785767	5.727044
636.507324	1295.096313	8953.329102	1738.015015	5.783563
636.842224	1302.600952	8855.398438	1740.764160	5.801337
637.177124	1297.622681	8725.888672	1734.894165	5.886589
637.511963	1296.879761	8640.291992	1725.383423	5.835212
637.846741	1295.765137	8556.477539	1716.467163	5.794225
638.181396	1297.994263	8475.265625	1706.733398	5.694910
638.516113	1303.492676	8430.460938	1702.721069	5.601658
638.850769	1303.567017	8383.278320	1705.321777	5.674734
639.185303	1308.396606	8344.493164	1697.296875	5.527216
639.519836	1301.337891	8273.235352	1693.210327	5.620743
639.854370	1300.743408	8230.214844	1677.829712	5.441776
640.188843	1291.307007	8179.392090	1684.219727	5.704237
640.523254	1295.839478	8130.574707	1692.021606	5.796598
640.857605	1297.399780	8097.287109	1696.554077	5.870014
641.191895	1302.526733	8074.031250	1695.959595	5.810125
641.526184	1292.198608	8041.709473	1690.535522	5.901715
641.860413	1293.536011	7996.682129	1692.318726	5.949187
642.194580	1290.638184	7945.338379	1687.414673	5.962349
642.528748	1300.669067	7905.585938	1687.860474	5.862169
642.862793	1301.932251	7850.156250	1684.219727	5.838033
643.196838	1301.263550	7806.243652	1675.526367	5.753481
643.530823	1306.241821	7799.036621	1667.798828	5.568588
643.864746	1297.325562	7827.717285	1665.346802	5.635516
644.198669	1304.309937	7848.076660	1675.749146	5.676229
644.532532	1299.703125	7847.259277	1674.485962	5.724011
644.866333	1306.984741	7846.070313	1673.668823	5.607574
645.200073	1300.148926	7843.099121	1667.947632	5.621298
645.533813	1298.662842	7835.296875	1679.910156	5.832472
645.867554	1297.697144	7811.890625	1685.408813	5.951798
646.201172	1306.464722	7800.373535	1677.086792	5.707226
646.534729	1301.040649	7809.958984	1667.798950	5.634704
646.868225	1301.263550	7808.175781	1658.659668	5.492561
647.201782	1291.678467	7806.541504	1674.263306	5.872492
647.535217	1293.461792	7799.482422	1664.529419	5.703450
647.868591	1289.226440	7797.029785	1668.096069	5.821774
648.201965	1292.644409	7777.859863	1667.501587	5.780181
648.535278	1297.845581	7757.798340	1673.148804	5.809690
648.868591	1294.427734	7760.474121	1676.492188	5.908780
649.201782	1291.678467	7766.714844	1670.770874	5.854676
649.534912	1287.443237	7750.071777	1680.281616	6.078616
649.868103	1292.867310	7723.470703	1677.903931	5.987566
650.201172	1296.953979	7725.773926	1683.328125	6.010032
650.534180	1298.588623	7735.878906	1678.944336	5.908631
650.867188	1297.845581	7761.439453	1684.665649	5.984598
651.200134	1293.090210	7765.080566	1677.532593	5.940095
651.533020	1288.780640	7774.962891	1690.758423	6.197448
651.865845	1290.266724	7733.576660	1685.854492	6.139512
652.198608	1295.913696	7680.300781	1694.547852	6.243891
652.531433	1297.845581	7614.617188	1677.012329	6.002540
652.864136	1300.817749	7602.134277	1674.857788	5.935903
653.196777	1426.835083	7731.792480	1722.782837	4.693890
653.529358	1437.237671	7701.773438	1732.665039	4.715870
653.861938	1435.157104	7646.566895	1730.658813	4.757401
654.194519	1308.173706	7457.689453	1669.730835	5.879441
654.526978	1303.344116	7453.603027	1658.734009	5.778454
654.859375	1299.851685	7439.188965	1669.805054	6.025949
655.191833	1297.994263	7434.433105	1670.547974	6.071171
655.524170	1301.560791	7412.959473	1677.978394	6.159271
655.856445	1305.796021	7394.458496	1658.511108	5.792981
656.188660	1311.963135	7379.375000	1664.678101	5.813269
656.520874	1307.505005	7368.451660	1673.520142	6.038910
656.853088	1299.628906	7421.578613	1688.306274	6.348915
657.185181	1289.820923	7511.708496	1690.535522	6.440403
657.517212	1289.077759	7674.505371	1684.293945	6.189345
657.849243	1298.365723	7830.169434	1692.467285	6.033579
658.181274	1301.114868	8021.572754	1710.299927	6.088648
658.513123	1301.783569	8209.632813	1726.943726	6.154740
658.844971	1305.424561	8387.438477	1738.312134	6.112493
659.176819	1298.068604	8519.921875	1736.751953	6.074387
659.508667	1295.170776	8580.775391	1744.405151	6.166055
659.840393	1290.489624	8567.475586	1748.194336	6.289757
660.172058	1298.365723	8485.444336	1749.754761	6.280563
660.503662	1304.904419	8306.969727	1740.912720	6.226853
660.835266	1308.842407	8102.414551	1728.132690	6.171867
661.166931	1309.436768	7873.710938	1720.702515	6.265213
661.498413	1305.870239	7696.275879	1706.882202	6.275219
661.829773	1303.715454	7528.426270	1697.594360	6.327666
662.161194	1308.470825	7373.133301	1693.210449	6.343957
662.492615	1310.625732	7232.181152	1687.266113	6.360497
662.823975	1305.944580	7137.964844	1685.780151	6.512933
663.155212	1304.830078	7052.962891	1676.269409	6.461913
663.486450	1298.662964	6964.244629	1675.377808	6.649182
663.817627	1295.022095	6876.790527	1677.755371	6.856846
664.148743	1289.969604	6802.636719	1678.944336	7.056017
664.479858	1295.542236	6751.517090	1670.919556	6.880115
664.810913	1302.823853	6743.640625	1663.712280	6.632982
665.141907	1302.080933	6715.107910	1658.065308	6.576438
665.472778	1304.532837	6695.640625	1657.099243	6.539776
665.803711	1302.080933	6682.563965	1650.412109	6.473976
666.134583	1306.464844	6697.052246	1654.870117	6.463215
666.465454	1303.938477	6713.548340	1669.879272	6.764643
666.796143	1308.470825	6678.552246	1677.458374	6.871172
667.126831	1310.848633	6657.226563	1677.235352	6.852990
667.457458	1306.093140	6644.148926	1674.485962	6.901255
667.788147	1302.452271	6663.616699	1672.554199	6.903387
668.118774	1304.458496	6682.489746	1678.275391	6.950813
668.449219	1307.282104	6710.798828	1677.235352	6.846528
668.779663	1302.972534	6734.650391	1686.746094	7.065470
669.110107	1300.669189	6744.532715	1688.380859	7.121995
669.440552	1301.783691	6729.894531	1685.928711	7.076956
669.770874	1300.223267	6687.541504	1677.161011	6.996760
670.101135	1296.879761	6669.263672	1675.154785	7.041102
670.431396	1294.056274	6610.341309	1674.263306	7.151742
670.761597	1296.879761	6563.604980	1673.817383	7.156964
671.091797	1297.696899	6505.128906	1669.284790	7.135722
671.421875	1300.074707	6473.328125	1670.696655	7.164195
671.751892	1302.452271	6444.052246	1678.275513	7.309461
672.081909	1301.486450	6403.408691	1684.368530	7.504663
672.411865	1300.520508	6397.389160	1681.619263	7.477116
672.741821	1298.885864	6360.015625	1677.681274	7.484404
673.071716	1300.000366	6349.464844	1670.325195	7.333943
673.401550	1299.183105	6306.889160	1676.417969	7.533087
673.731262	1300.966431	6289.725098	1675.303345	7.503608
674.060974	1299.257324	6233.701172	1683.476685	7.786478
674.390625	1299.554565	6207.472168	1678.647095	7.724102
674.720276	1302.600952	6195.732422	1686.448853	7.844627
675.049927	1304.755859	6206.431641	1681.619141	7.688458
675.379395	1304.755859	6200.338379	1680.504517	7.675260
675.708923	1304.830078	6165.639160	1672.257202	7.558970
676.038330	1302.303833	6146.692871	1668.987793	7.569251
676.367737	1301.040527	6128.042969	1674.783569	7.742756
676.697083	1300.891968	6143.943359	1677.829956	7.783068
677.026428	1307.133423	6161.850098	1682.065063	7.723038
677.355652	1312.111816	6198.480957	1683.551147	7.601541
677.684875	1312.483398	6225.602051	1690.609741	7.696259
678.013977	1310.477051	6264.536621	1696.108276	7.784146
678.343079	1306.910645	6313.873535	1702.498169	7.900748
678.672180	1301.709473	6392.634277	1708.962524	7.999589
679.001221	1291.455688	6464.484863	1716.987305	8.225965
679.330139	1298.440063	6551.642090	1727.092407	8.159829
679.659058	1293.090210	6605.065918	1729.916016	8.223415
679.987976	1294.650635	6683.009277	1737.940796	8.226813
680.316772	1284.099609	6731.306152	1737.049194	8.315264
680.645630	1290.340942	6760.283691	1736.826294	8.162523
680.974304	1298.217163	6729.894531	1746.262695	8.248751
681.302979	1306.613281	6669.783691	1752.726929	8.318096
681.631653	1311.145874	6606.626465	1751.909546	8.323394
681.960266	1306.316040	6548.521973	1744.999390	8.368297
682.288757	1297.399780	6495.470215	1738.237793	8.480802
682.617249	1294.056152	6427.185059	1742.844604	8.742980
682.945679	1295.839478	6358.381348	1737.123413	8.716647
683.274109	1303.566895	6248.933105	1732.665161	8.676774
683.602478	1302.526733	6152.042480	1720.702515	8.623042
683.930725	1300.297485	6031.820313	1708.888306	8.635504
684.259033	1295.839478	5969.851563	1703.092773	8.713141
684.587280	1295.467896	5901.493652	1704.132935	8.872400
684.915344	1290.563843	5870.583496	1710.671509	9.172617
685.243469	1292.867310	5831.128906	1712.826294	9.253741
685.571533	1292.124268	5808.689941	1713.123535	9.321226
685.899536	1296.879761	5779.042969	1711.860352	9.258490
686.227539	1296.062378	5762.398438	1707.476563	9.211448
686.555420	1295.913696	5738.324707	1709.705688	9.314581
686.883301	1300.817627	5744.714844	1709.111328	9.187739
687.211121	1296.062134	5768.714355	1713.940796	9.342972
687.538940	1299.034424	5812.553223	1715.352539	9.223804
687.866638	1298.588745	5836.998535	1720.256470	9.291090
688.194336	1302.303711	5807.128906	1730.213257	9.498916
688.521973	1301.635132	5763.661621	1727.092407	9.535069
688.849609	1297.399780	5715.067871	1722.634155	9.625766
689.177063	1295.765137	5669.743652	1719.067749	9.677748
689.504578	1288.037598	5607.478027	1714.683960	9.877353
689.832031	1287.220337	5541.125488	1707.550781	9.881048
690.159485	1295.393677	5482.351563	1703.389771	9.744452
690.486816	1305.350220	5434.129395	1700.417603	9.568624
690.814087	1307.802124	5398.166992	1707.773804	9.778387
691.141296	1305.350220	5364.879395	1698.708618	9.689754
691.468506	1299.331665	5329.214355	1696.405273	9.853230
691.795715	1301.635132	5270.960938	1691.427124	9.820107
692.122803	1298.811523	5214.639160	1692.913208	10.064326
692.449829	1307.207764	5199.035645	1703.166992	10.174120
692.776855	1305.424561	5162.255859	1689.049438	9.946633
693.103821	1307.579224	5129.637207	1688.380737	9.963258
693.430664	1298.142822	5068.560547	1680.727539	10.147012
693.757568	1291.827026	5057.117676	1687.563477	10.510118
694.084351	1292.050049	5049.910156	1685.482910	10.469599
694.411133	1300.371948	5047.458008	1689.569702	10.386678
694.737854	1303.641235	5035.197754	1697.817261	10.563313
695.064575	1293.090210	5049.241699	1701.458130	10.871977
695.391174	1287.443237	5073.389648	1704.281616	11.010150
695.717773	1291.158325	5109.798340	1709.259766	10.948961
696.044250	1299.628906	5140.113770	1718.176147	10.898292
696.370789	1302.006470	5206.391602	1728.281250	10.917847
696.697205	1312.928955	5291.914063	1735.414429	10.617921
697.023621	1311.442993	5418.080566	1749.160278	10.658775
697.349915	1300.743286	5559.626953	1771.673950	11.057608
697.676208	1289.078003	5744.789063	1795.153687	11.357911
698.002380	1291.381226	5938.050781	1819.525024	11.366072
698.328674	1301.114868	6130.346191	1833.270996	11.019479
698.654724	1301.263550	6263.125000	1856.453491	11.189147
698.980896	1299.108765	6362.244629	1876.292114	11.399721
699.306946	1300.446167	6374.652832	1885.357056	11.527140
699.632935	1309.213867	6307.781250	1875.326538	11.325499
699.958862	1308.470825	6165.862793	1855.636230	11.264592
700.284729	1309.659790	5985.010254	1838.175171	11.304294
700.610596	1305.201538	5796.207031	1822.794312	11.525098
700.936340	1307.282104	5604.431152	1806.224731	11.611015
701.262146	1304.532715	5444.011719	1785.494263	11.618891
701.587830	1300.669067	5306.625977	1780.218750	11.970914
701.913513	1301.040649	5179.865723	1767.735962	12.031873
702.239075	1300.074707	5057.489746	1758.002319	12.187304
702.564697	1293.238892	4951.905273	1742.621704	12.282694
702.890137	1284.693970	4858.283691	1724.640259	12.311046
703.215698	1285.585693	4771.275391	1716.392944	12.359312
703.541016	1291.529907	4710.420898	1705.841797	12.118312
703.866455	1299.257324	4677.950684	1706.287720	12.046976
704.191711	1301.932129	4653.059570	1712.231934	12.243635
704.517029	1304.532837	4603.796875	1710.820313	12.314487
704.842163	1309.956909	4551.413574	1711.860352	12.398853
705.167419	1306.836182	4518.125488	1705.990601	12.429725
705.492493	1299.777466	4509.283691	1700.046265	12.471351
705.817566	1296.805298	4501.778809	1693.582031	12.380032
706.142578	1305.573120	4493.159668	1686.894653	11.962704
706.467590	1310.402710	4501.778809	1690.832642	11.920562
706.792480	1307.282104	4499.475098	1703.687134	12.417953
707.117371	1297.102661	4499.178711	1709.334106	12.873880
707.442200	1296.953979	4493.383301	1719.662476	13.224398
707.766907	1290.712524	4496.132324	1720.108032	13.395921
708.091675	1286.625977	4486.472656	1734.151245	13.985835
708.416321	1284.916870	4498.212402	1728.281250	13.797810
708.741028	1291.009766	4504.379395	1731.921997	13.721180
709.065552	1297.176758	4551.041504	1723.674438	13.107419
709.390137	1299.406006	4567.388184	1730.361694	13.187210
709.714600	1290.118164	4598.224121	1734.002563	13.418083
710.039063	1294.056274	4623.486816	1738.832153	13.358917
710.363403	1301.263550	4657.888672	1747.748657	13.301608
710.687744	1310.922852	4718.520020	1753.321289	12.982709
711.012085	1308.396606	4753.813965	1769.742188	13.390121
711.336304	1301.412231	4791.336426	1773.754517	13.534456
711.660461	1309.288208	4793.862793	1784.231079	13.629867
711.984619	1307.356323	4786.655762	1775.389282	13.451931
712.308716	1309.213989	4760.055176	1771.376953	13.392762
712.632751	1306.316040	4728.030762	1763.946655	13.374306
712.956726	1311.145874	4689.690918	1770.485229	13.595775
713.280701	1305.275757	4635.152344	1762.460571	13.729783
713.604553	1298.588501	4583.660645	1758.002319	13.984892
713.928467	1296.433716	4532.391602	1751.983765	14.077749
714.252258	1303.269653	4502.744629	1761.494507	14.321876
714.575989	1299.182983	4486.249512	1770.931030	14.801952
714.899719	1290.638184	4483.872070	1766.770142	14.910651
715.223267	1283.208008	4506.683105	1766.398560	14.989740
715.546936	1286.031616	4529.939941	1766.250000	14.803699
715.870422	1294.947876	4550.298340	1777.618164	14.826983
716.193970	1297.845581	4524.664063	1783.859741	15.061714
716.517395	1302.378052	4483.426270	1770.782349	14.724840
716.840820	1306.761841	4442.560059	1766.398560	14.657725
717.164124	1304.978638	4392.925781	1752.206665	14.483020
717.487488	1302.600952	4356.145996	1750.869263	14.680260
717.810730	1289.895142	4301.310059	1744.033569	15.080565
718.133972	1293.164429	4263.118652	1739.277954	15.020889
718.457092	1297.474121	4200.704590	1737.197632	15.146008
718.780212	1301.486450	4138.215332	1722.559937	14.843628
719.103210	1305.127319	4083.157471	1715.723999	14.780137
719.426208	1299.703247	4021.337646	1705.098755	14.895297
719.749207	1304.012695	3973.115234	1710.225586	15.219082
720.072083	1298.960083	3922.589111	1705.841797	15.508356
720.394958	1298.514282	3888.632813	1706.213379	15.740557
720.717773	1297.473999	3855.047852	1698.411499	15.676478
721.040527	1299.926147	3825.475586	1704.355835	16.013533
721.363281	1301.412231	3821.537842	1701.012085	15.856347
721.685913	1310.551392	3812.695557	1700.789429	15.596146
722.008545	1308.693848	3795.382813	1693.061890	15.457022
722.331055	1311.517334	3765.141846	1691.352905	15.480591
722.653503	1298.217163	3754.293701	1692.244507	16.042957
722.976013	1293.684692	3765.661865	1696.925415	16.312479
723.298401	1293.387451	3768.708252	1696.479858	16.284451
723.620789	1297.697021	3757.488525	1691.650024	16.015707
723.943115	1304.012817	3746.491943	1694.250610	15.977119
724.265381	1302.080933	3740.993408	1698.040039	16.235067
724.587585	1287.443237	3750.132813	1696.331055	16.603304
724.909790	1287.963379	3760.014893	1690.684082	16.290951
725.231873	1284.025269	3772.423584	1692.690308	16.422813
725.553894	1293.981934	3774.132080	1701.383667	16.426495
725.875916	1319.319214	3797.686279	1746.782593	17.247782
726.197937	1320.879517	3794.268555	1745.816772	17.180365
726.519775	1320.062256	3801.253174	1746.857056	17.201208
726.841675	1295.988159	3798.355225	1710.077148	16.547892
727.163513	1295.319458	3836.323975	1718.696289	16.661791
727.485291	1299.183228	3878.230469	1729.692993	16.692589
727.806946	1301.783691	3913.078369	1736.677612	16.654341
728.128662	1303.938354	3927.344727	1738.163574	16.551962
728.450256	1305.944458	3940.496338	1740.689819	16.501682
728.771790	1301.114868	3929.128174	1742.770386	16.805681
729.093323	1302.749634	3913.598877	1742.398926	16.839321
729.414795	1301.858032	3891.382080	1739.055176	16.883303
729.736145	1303.046997	3885.586670	1739.352417	16.894434
730.057495	1306.241821	3898.440674	1739.649536	16.719694
730.378845	1302.229614	3899.183838	1743.661987	16.998081
730.700134	1303.121216	3911.072510	1750.943726	17.171431
731.021301	1295.765259	3925.412842	1761.494629	17.710714
731.342468	1298.588745	3958.328857	1762.980591	17.460045
731.663574	1293.684692	3978.985107	1762.014648	17.440506
731.984680	1300.669189	3982.922852	1766.101440	17.352283
732.305664	1304.532837	3995.628906	1763.426636	17.052299
732.626648	1309.882690	3994.440186	1771.228394	17.185167
732.947571	1305.201538	3982.848877	1764.764038	17.162920
733.268433	1301.040649	3949.858398	1764.095337	17.481560
733.589233	1295.393677	3925.487061	1756.219238	17.521263
733.909973	1300.074707	3903.790771	1764.838257	17.850008
734.230713	1302.229492	3866.639404	1769.965210	18.239506
734.551331	1307.059204	3805.264893	1760.454468	18.148838
734.871948	1301.263550	3752.436279	1745.816772	18.136347
735.192505	1301.263672	3713.501221	1728.132690	17.695978
735.513062	1295.393677	3683.557373	1721.073853	17.824581
735.833435	1294.650513	3649.080811	1712.751953	17.758074
736.153931	1290.638306	3606.654053	1719.364868	18.511385
736.474304	1290.341064	3581.019531	1717.730103	18.657749
736.794617	1292.867310	3561.477783	1714.163696	18.570681
737.114807	1297.028320	3564.301514	1701.086426	17.821323
737.434998	1301.634888	3574.778076	1706.064819	17.791662
737.755188	1305.944580	3581.688232	1714.832520	17.967222
738.075256	1302.972534	3594.839844	1725.234985	18.424385
738.395325	1309.659668	3619.879639	1726.795288	18.056099
738.715271	1308.693848	3657.031250	1725.309204	17.740864
739.035278	1309.956909	3666.690674	1720.553711	17.422281
739.355164	1308.693848	3662.529541	1714.832520	17.254333
739.675049	1312.409058	3639.867432	1713.643555	17.239168
739.994873	1313.077759	3630.059570	1725.977905	17.820602
740.314636	1302.452393	3601.156006	1725.383423	18.398676
740.634277	1292.644409	3571.211914	1718.324585	18.681921
740.953979	1292.570190	3533.614502	1710.522949	18.649910
741.273499	1289.672363	3497.577881	1706.956421	18.899544
741.593140	1292.421509	3462.803955	1709.036743	19.195477
741.912598	1289.895142	3435.534912	1703.612671	19.281780
742.232117	1297.771362	3403.213135	1694.473511	18.841753
742.551453	1297.474121	3387.014893	1685.705688	18.579756
742.870850	1303.641235	3365.615967	1684.219727	18.456991
743.190063	1303.641235	3349.492188	1684.219727	18.602455
743.509338	1307.059082	3325.046875	1691.798706	19.065508
743.828552	1306.241821	3306.173828	1688.529297	19.115025
744.147705	1305.498779	3298.891846	1688.603638	19.218731
744.466797	1301.189209	3277.344482	1684.219849	19.382618
744.785828	1301.783569	3253.270264	1682.436523	19.505793
745.104858	1303.641235	3225.778320	1686.151733	19.900272
745.423706	1304.012695	3214.707031	1680.653198	19.712233
745.742615	1302.229614	3213.147217	1674.263062	19.468838
746.061401	1306.910645	3208.465820	1668.170410	18.998121
746.380249	1304.904419	3211.957764	1668.096069	19.044651
746.698975	1308.471069	3205.270508	1676.269531	19.390476
747.017639	1301.858032	3213.964111	1676.417969	19.588867
747.336304	1300.223267	3203.858643	1679.538696	19.925844
747.654907	1293.610352	3196.577393	1666.981567	19.620478
747.973389	1292.570068	3173.915039	1665.867065	19.842028
748.291931	1301.560669	3181.940186	1655.687622	18.832739
748.610352	1300.000366	3190.187500	1657.322266	18.904049
748.928711	1303.195557	3205.047852	1663.489258	18.944357
749.247070	1297.325562	3202.595703	1664.306519	19.261360
749.565308	1299.926147	3199.326416	1675.823364	19.790310
749.883545	1300.966431	3183.648682	1677.383789	19.993675
750.201782	1298.737305	3168.342529	1684.591309	20.638262
750.519836	1297.994263	3154.150391	1687.563477	20.987955
750.837952	1293.610352	3146.348877	1685.482788	21.150984
751.155884	1304.384155	3139.141357	1678.944214	20.414694
751.473877	1304.830078	3130.670654	1663.786499	19.659790
751.791809	1309.808472	3133.122803	1657.173462	19.051294
752.109619	1302.229492	3115.736328	1654.424316	19.420650
752.427490	1300.149048	3111.575195	1660.963013	19.918779
752.745300	1297.994263	3119.822510	1663.489258	20.061989
753.062988	1292.718750	3135.054688	1671.142578	20.540436
753.380615	1295.170776	3137.580811	1669.433594	20.313763
753.698303	1299.034546	3119.748047	1667.798828	20.253834
754.015808	1305.350220	3120.119873	1672.257202	20.217827
754.333374	1302.080933	3129.630615	1669.210815	20.088640
754.650757	1295.467896	3134.014648	1673.000122	20.534273
754.968262	1294.204712	3131.042236	1663.415039	20.100327
755.285583	1299.777466	3116.776123	1659.997070	19.824980
755.602905	1305.052856	3100.578369	1656.727905	19.586191
755.920105	1309.139526	3086.386475	1662.226196	19.867058
756.237305	1306.018921	3087.055420	1669.582153	20.413013
756.554443	1298.960083	3094.188232	1672.851563	20.826962
756.871582	1289.449341	3099.612305	1668.467651	20.938353
757.188599	1293.238892	3104.962158	1673.445923	20.985933
757.505615	1295.765015	3107.562500	1675.897827	20.980976
757.822510	1300.149048	3124.949463	1691.352905	21.438171
758.139465	1292.941650	3150.435547	1694.622070	21.624859
758.456238	1294.130493	3182.459961	1695.439453	21.252062
758.773010	1295.170654	3209.283203	1692.318726	20.748419
759.089783	1297.325439	3211.809326	1691.129883	20.569744
759.406433	1298.811523	3235.214844	1695.736694	20.498062
759.723145	1303.418335	3237.740967	1699.897827	20.497072
760.039673	1304.087036	3250.892578	1702.275391	20.453423
760.356201	1298.662964	3251.635498	1707.922241	20.955711
760.672668	1296.953979	3257.505859	1711.786133	21.158949
760.989136	1305.275757	3254.087646	1713.866577	20.966150
761.305481	1306.464722	3237.889893	1704.801758	20.623995
761.621826	1305.573120	3239.821533	1701.458008	20.467117
761.938049	1304.607178	3259.735107	1709.705566	20.719790
762.254333	1305.127319	3301.492920	1724.194702	20.991514
762.570496	1303.343994	3361.529297	1740.764160	21.252710
762.886597	1298.440063	3472.760498	1758.299438	21.149569
763.202637	1297.399780	3645.588867	1797.085571	21.279625
763.518677	1299.331787	3874.292236	1844.490723	21.171547
763.834656	1303.121216	4080.111328	1893.233276	21.250059
764.150574	1306.093262	4218.313965	1923.548828	21.202225
764.466370	1306.687622	4241.050781	1927.784058	21.166309
764.782288	1301.932129	4169.868652	1915.449829	21.392303
765.097961	1305.647461	4025.795898	1892.861816	21.587585
765.413696	1306.464722	3853.710693	1867.524536	22.026133
765.729309	1308.173706	3679.619385	1834.979980	22.214561
766.044861	1306.613403	3526.778564	1801.098022	22.272427
766.360474	1302.155273	3415.993164	1766.324219	21.958588
766.675903	1297.176880	3327.647217	1745.445313	22.077074
766.991394	1300.297607	3279.870361	1739.352539	22.179277
767.306763	1304.532837	3223.772217	1737.420532	22.555170
767.622131	1304.681519	3190.707275	1720.925293	22.069889
767.937378	1296.656738	3140.033203	1699.897583	21.875122
768.252625	1289.523804	3112.318359	1680.578979	21.453608
768.567810	1288.557739	3065.135986	1675.377808	21.773319
768.882996	1294.204712	3038.461182	1659.922852	20.966993
769.197998	1299.554565	3002.572998	1658.511108	21.077667
769.513062	1311.294434	2986.523682	1655.316040	20.535793
769.828064	1314.118042	2971.217529	1656.727905	20.675274
770.142944	1310.848511	2955.019287	1650.709106	20.670639
770.457825	1304.087036	2946.028564	1642.387207	20.603668
770.772705	1299.034424	2925.892578	1642.164429	21.091576
771.087402	1303.269653	2905.682373	1640.083984	21.019199
771.402100	1301.486450	2869.422607	1639.489624	21.557203
771.716736	1298.885864	2836.431885	1632.950806	21.727150
772.031372	1296.211060	2814.290039	1631.613403	22.093866
772.345947	1298.514282	2811.689453	1631.762085	22.023081
772.660461	1296.731079	2807.156982	1632.802246	22.250093
772.974854	1296.210938	2792.816406	1630.944702	22.366199
773.289246	1293.164551	2776.395264	1626.263672	22.457674
773.603638	1295.393677	2765.398438	1622.474121	22.250298
773.917908	1305.647461	2758.191406	1618.759155	21.556091
774.232178	1308.470825	2748.234619	1620.542358	21.675190
774.546265	1313.597900	2737.312256	1620.988159	21.590725
774.860474	1303.567017	2733.745361	1616.455688	21.877598
775.174561	1297.771362	2726.984131	1614.598267	22.167931
775.488586	1289.672363	2718.810791	1614.820923	22.751369
775.802551	1293.907593	2712.718262	1618.833374	22.901278
776.116516	1296.211060	2706.328369	1618.907715	22.884384
776.430359	1298.068481	2691.690430	1615.266724	22.760710
776.744202	1295.839478	2674.303711	1608.802368	22.703737
777.057922	1295.319214	2670.588135	1606.722046	22.643049
777.371704	1296.433838	2674.972168	1604.790161	22.368353
777.685303	1293.684692	2679.950439	1609.025391	22.747492
777.998962	1298.737305	2666.055908	1615.415405	23.160521
778.312500	1300.371948	2658.105469	1613.186523	23.039467
778.626038	1310.254272	2646.811523	1612.294800	22.598398
778.939453	1307.207764	2647.628906	1601.520874	21.956764
779.252869	1310.997070	2645.771240	1603.898560	21.943899
779.566223	1303.046875	2643.839600	1600.926392	22.216671
779.879578	1306.836304	2654.613525	1591.564331	21.125748
780.192749	1308.396606	2663.678223	1582.796509	20.246708
780.505920	1311.740234	2669.325195	1580.344604	19.785456
780.819031	1304.012817	2646.513916	1580.567383	20.599951
781.132141	1296.731079	2621.920166	1586.734497	21.883928
781.445190	1294.799194	2600.298096	1588.220581	22.475805
781.758118	1298.662964	2597.400146	1590.598267	22.478397
782.071045	1298.365845	2588.335205	1589.409546	22.562063
782.383911	1294.576294	2574.663574	1585.099976	22.695616
782.696838	1301.560913	2550.960938	1586.585938	22.812952
783.009583	1298.068481	2536.917725	1581.830688	22.905306
783.322266	1303.343994	2530.824951	1570.610840	21.773603
783.634888	1293.313110	2525.401123	1569.050659	22.379696
783.947510	1292.718628	2527.184326	1565.038208	22.059711
784.260132	1291.901367	2521.314209	1569.570679	22.585522
784.572571	1293.461670	2521.016846	1570.165039	22.541014
784.885010	1297.251221	2501.624023	1568.679077	22.536863
785.197449	1301.263550	2487.506348	1570.833862	22.724716
785.509766	1301.040649	2482.008057	1571.874023	22.933180
785.822083	1300.371948	2490.627197	1572.839966	22.891562
786.134277	1299.703247	2492.781982	1564.815308	22.220835
786.446533	1301.783691	2497.314697	1557.682251	21.404594
786.758606	1308.768188	2504.150391	1559.762695	20.997009
787.070740	1301.189331	2513.586914	1565.781250	21.823858
787.382690	1297.325562	2515.147217	1572.542847	22.599146
787.694641	1293.313232	2525.549561	1576.035034	22.943796
788.006653	1295.839478	2550.738037	1584.431152	22.997211
788.318481	1304.384277	2595.542725	1600.183472	22.909597
788.630310	1308.916870	2633.362549	1614.078003	23.040668
788.942017	1304.681519	2660.706299	1621.656860	23.375336
789.253784	1305.721802	2659.368896	1615.341187	22.872976
789.565430	1297.697021	2652.532715	1615.118164	23.428755
789.877014	1299.926147	2632.025146	1608.431030	23.159306
790.188538	1297.919922	2607.431152	1600.926392	23.138899
790.500061	1293.981812	2564.855713	1587.849121	23.123247
790.811462	1299.405884	2526.515381	1581.682007	23.003336
791.122925	1289.003418	2499.543457	1582.053345	24.208199
791.434204	1296.359497	2481.190674	1576.332397	23.629772
791.745483	1292.347168	2466.627441	1568.753418	23.538355
792.056702	1301.783569	2453.698730	1554.858765	21.969952
792.367920	1302.378052	2450.355225	1551.069336	21.663435
792.678955	1302.303833	2439.729736	1548.914551	21.681475
792.990112	1299.926147	2427.767090	1551.589478	22.313725
793.301086	1298.960083	2410.603271	1548.988892	22.491821
793.612122	1299.703247	2410.454346	1552.332520	22.744003
793.922974	1295.319336	2401.984131	1551.292114	23.130110
794.233826	1297.474243	2405.327881	1552.703979	23.038218
794.544556	1298.440063	2406.665283	1548.988892	22.608114
794.855286	1300.966431	2411.271973	1552.109497	22.619276
795.166016	1296.731079	2403.024414	1552.703735	23.137865
795.476624	1297.771362	2410.528809	1554.858765	23.103634
795.787292	1302.155151	2434.899902	1558.127930	22.597569
796.097778	1305.721802	2477.104004	1560.282837	21.731680
796.408264	1305.796021	2510.837646	1567.192871	21.691935
796.718689	1301.040649	2516.856201	1563.477905	21.585285
797.029053	1296.656738	2505.785156	1574.251587	22.958260
797.339355	1291.827148	2490.627441	1577.595337	23.837849
797.649658	1295.765137	2481.562256	1579.527222	23.930071
797.959839	1299.257446	2466.701904	1574.251831	23.555244
798.270020	1299.926147	2449.389404	1567.787476	23.303165
798.580078	1296.656860	2433.339844	1570.313599	24.075027
798.890137	1303.195435	2424.349121	1562.066040	23.089663
799.200195	1303.938477	2398.566162	1555.230103	22.956812
799.510071	1310.551392	2389.129639	1543.936157	21.638186
799.820007	1305.498779	2380.361816	1542.970337	22.093193
800.129883	1299.554565	2386.529053	1541.484253	22.257164
800.439575	1298.960083	2375.680908	1533.533813	21.785938
800.749329	1295.244995	2364.312500	1530.710327	22.025301
801.058960	1304.161255	2352.647217	1531.453491	21.678139
801.368591	1298.960083	2337.043701	1539.923828	23.212364
801.678162	1300.074585	2329.984863	1539.923828	23.288363
801.987671	1300.743286	2309.997314	1543.193237	24.022688
802.297119	1294.353394	2305.464600	1545.570923	24.845688
802.606506	1291.455444	2296.697021	1543.861938	25.109039
802.915894	1284.471069	2295.953857	1533.682617	24.638239
803.225159	1289.523682	2289.043701	1524.097534	23.468649
803.534424	1294.576294	2276.932373	1526.252319	23.583712
803.843628	1301.263428	2277.452637	1531.379272	23.572874
804.152771	1306.613281	2283.916992	1535.985840	23.469936
804.461792	1309.659668	2285.997559	1537.992065	23.386616
804.770874	1307.356323	2291.421631	1537.546265	23.391735
805.079773	1307.876465	2288.375244	1540.146851	23.689003
805.388733	1302.155273	2296.474121	1537.323242	23.651163
805.697571	1298.885864	2297.811523	1531.676392	23.304089
806.006470	1294.502075	2307.099365	1532.642212	23.517754
806.315125	1296.656860	2322.182861	1538.734985	23.605265
806.623901	1304.681396	2334.442871	1545.942383	23.428822
806.932495	1307.504883	2334.368408	1542.450195	22.879896
807.241150	1307.430542	2324.040771	1532.196411	22.109346
807.549622	1307.950806	2303.012939	1529.595703	22.274479
807.858154	1313.969360	2296.102783	1524.691895	21.455591
808.166565	1312.631958	2289.712646	1530.487427	22.296570
808.474915	1309.659790	2281.167969	1535.540039	23.250473
808.783264	1304.830078	2264.672607	1533.905396	23.865927
809.091492	1307.430664	2249.440430	1526.920898	23.300207
809.399719	1310.477051	2237.923584	1519.713501	22.560486
809.707825	1305.127319	2233.242432	1521.125366	23.272764
810.015930	1298.662964	2214.295166	1514.883911	23.614389
810.323975	1290.118164	2208.722900	1509.088379	23.837261
810.632080	1291.901367	2193.565186	1507.230835	23.881348
810.939880	1291.455566	2193.044922	1504.258423	23.603081
811.247864	1295.096313	2179.224365	1501.286499	23.321304
811.555664	1295.467896	2176.177979	1496.456665	22.821218
811.863464	1298.811523	2169.862305	1495.490723	22.579533
812.171143	1301.189331	2163.769531	1496.679688	22.663441
812.478882	1302.155151	2164.809814	1494.153442	22.256680
812.786438	1303.938477	2165.924561	1495.639526	22.239460
813.094055	1301.783691	2172.685791	1495.639282	22.259171
813.401489	1296.359619	2172.983154	1498.760132	23.088648
813.708984	1295.542358	2164.884277	1492.295776	22.632456
814.016357	1295.319336	2155.076416	1489.472290	22.582304
814.323730	1296.731079	2138.135498	1488.580688	22.801117
814.630981	1297.994263	2137.986572	1493.856323	23.317125
814.938232	1301.783691	2136.946289	1487.020508	22.179731
815.245361	1302.006470	2129.887451	1485.905884	22.213266
815.552490	1293.684692	2124.092041	1487.391968	23.326778
815.859619	1293.610474	2132.933838	1494.227661	23.902252
816.166565	1299.851929	2139.472412	1496.308228	23.398226
816.473572	1309.288208	2139.695557	1493.410522	22.172529
816.780457	1310.476929	2131.893799	1507.899414	24.034384
817.087341	1314.192139	2140.438477	1507.156372	23.354322
817.394043	1311.071411	2149.652100	1511.168823	23.861439
817.700806	1304.161255	2150.989258	1503.738403	23.567614
818.007507	1294.873535	2151.955322	1510.202759	25.123533
818.314209	1296.359497	2152.178467	1516.667114	25.742315
818.620667	1298.514282	2166.295898	1515.032593	24.950783
818.927246	1296.879639	2183.088135	1522.388550	25.446486
819.233704	1298.514282	2220.611084	1527.218140	24.802588
819.540161	1301.114868	2263.186523	1540.518188	24.884146
819.846497	1302.526733	2330.504883	1549.062988	23.982635
820.152832	1299.405884	2405.327881	1567.192871	24.213913
820.458984	1297.474121	2488.769775	1585.025757	24.137722
820.765259	1300.520508	2584.917236	1611.625977	24.221914
821.071350	1306.390503	2691.318848	1636.740356	23.853209
821.377502	1307.727783	2864.369873	1680.727539	23.961819
821.683472	1307.281982	3196.948975	1754.435913	23.663107
821.989441	1308.842407	3840.335938	1910.917480	23.783392
822.295349	1308.693848	4899.446777	2152.401367	23.496674
822.601196	1309.065430	6195.286621	2458.231445	23.518501
822.907043	1299.703247	7383.609863	2741.250244	23.694429
823.212769	1301.560913	8059.318848	2916.158936	23.892511
823.518494	1304.532837	8059.689941	2937.780518	24.177790
823.824097	1308.099487	7471.287109	2797.497314	24.166031
824.129700	1303.418335	6526.082031	2579.790283	24.439100
824.435242	1291.604248	5549.075684	2332.808350	24.455925
824.740723	1288.632080	4726.693359	2141.627197	24.810352
825.046082	1294.650513	4120.977539	1985.666016	24.449240
825.351501	1305.795898	3688.832764	1877.852661	24.005367
825.656799	1303.418335	3396.749023	1804.590210	23.941362
825.962036	1299.257324	3225.481201	1758.299683	23.831205
826.267212	1291.752808	3147.612061	1750.349243	24.710733
826.572449	1297.028198	3159.871826	1760.974609	24.905279
826.877502	1298.291382	3299.337891	1799.983398	25.071482
827.182495	1309.734131	3570.617188	1857.270874	24.217827
827.487488	1306.984985	3913.969971	1927.041138	23.784416
827.792419	1302.823853	4204.791016	1995.027954	23.852926
828.097290	1296.136719	4306.214355	2019.250854	24.023106
828.402100	1297.771362	4182.648438	1989.083862	23.963327
828.706848	1305.275879	3897.697998	1921.617065	23.774723
829.011597	1301.932251	3524.846924	1831.710571	23.832600
829.316223	1304.607300	3176.367188	1747.377075	23.655266
829.620789	1302.080933	2860.803467	1675.675171	23.967976
829.925354	1307.653564	2643.616455	1631.464844	24.238045
830.229797	1305.053101	2488.249268	1597.062866	24.679743
830.534302	1302.155151	2384.820313	1569.347778	24.679155
830.838562	1295.839478	2308.214111	1548.617188	24.968792
831.142944	1299.628906	2245.577148	1538.883667	25.292585
831.447144	1299.777466	2216.747559	1526.029297	24.673851
831.751404	1305.498901	2191.335938	1516.295532	23.796322
832.055542	1302.972534	2184.351318	1505.893188	23.023092
832.359619	1297.920044	2190.072754	1507.156250	23.452959
832.663635	1295.988159	2217.713379	1510.202759	23.240614
832.967651	1295.096558	2268.239258	1531.527710	24.295630
833.271545	1297.994263	2358.442627	1556.939087	24.418428
833.575439	1305.201660	2516.855957	1589.855103	23.492958
833.879211	1303.343994	2742.439453	1638.449219	23.285824
834.183044	1310.477051	2987.638428	1691.129883	22.696255
834.486694	1304.978638	3179.561768	1746.931274	23.576050
834.790344	1314.118042	3242.719482	1766.250000	23.443514
835.093933	1306.984985	3161.580811	1754.436035	24.126608
835.397522	1311.220215	2991.798828	1712.752075	23.892477
835.700928	1309.659790	2796.977295	1665.272827	23.909693
836.004395	1311.220093	2613.301025	1628.492798	24.366589
836.307739	1304.309937	2455.259033	1589.409546	24.770826
836.611023	1302.303711	2330.727783	1549.211792	24.008392
836.914307	1304.681519	2233.242432	1516.295532	22.789459
837.217529	1304.309937	2160.500000	1498.908813	22.728468
837.520691	1299.406128	2098.828857	1487.168945	23.487301
837.823730	1293.907593	2056.550781	1474.611816	23.694466
838.126831	1296.062378	2018.284790	1465.324097	23.436232
838.429749	1300.817749	1991.238647	1451.503784	21.825243
838.732727	1302.972534	1968.576294	1445.485229	21.411041
839.035522	1303.789917	1949.852051	1439.466675	21.000574
839.338379	1301.263550	1932.688110	1446.599609	23.017170
839.641113	1299.554565	1933.059570	1450.983521	23.903357
839.943848	1301.635132	1967.610352	1461.905884	24.065573
840.246460	1300.297485	2026.161011	1473.720093	23.891903
840.549072	1305.573120	2085.231689	1481.373413	22.548368
840.851563	1303.269653	2117.032959	1486.203003	22.479921
841.154053	1305.052979	2116.587158	1484.939941	22.166283
841.456482	1302.452393	2082.556641	1485.682983	23.487963
841.758850	1301.040649	2028.612915	1475.726440	24.009407
842.061157	1299.405884	1975.114868	1459.528320	23.696953
842.363403	1304.309937	1924.068848	1437.460571	21.484262
842.665588	1295.690796	1883.499634	1419.033569	20.983484
842.967712	1294.130493	1843.673462	1414.352417	21.876711
843.269775	1292.867310	1815.735718	1415.169556	23.390636
843.571777	1297.325562	1802.063965	1411.826172	22.685139
843.873840	1301.040649	1792.553101	1407.665039	21.693121
844.175659	1302.006470	1782.002075	1407.219238	21.919527
844.477600	1303.121094	1762.832031	1401.200684	21.335056
844.779297	1307.505005	1752.726929	1391.838501	18.941900
845.081116	1308.693726	1741.804565	1390.055298	18.785393
845.382751	1310.922852	1737.197754	1394.141968	19.522406
845.684387	1305.201538	1726.721069	1399.417358	22.351473
845.985962	1301.932251	1722.634399	1393.844727	21.847399
846.287537	1299.926147	1712.826294	1391.169922	22.098267
846.588989	1300.149048	1700.640625	1388.643555	22.096472
846.890381	1291.529907	1691.873047	1387.157349	23.886370
847.191711	1296.433960	1685.780151	1384.110962	22.519033
847.493042	1295.468018	1681.693359	1379.727173	21.816061
847.794250	1300.000366	1677.978394	1382.476440	21.820335
848.095459	1300.074707	1677.012329	1387.083130	23.082977
848.396606	1303.789795	1673.891602	1391.838501	23.790401
848.697693	1316.792725	1668.541870	1383.590942	18.990299
848.998657	1314.860962	1663.712280	1385.448608	20.234306
849.299622	1319.021851	1668.690430	1386.711548	19.358244
849.600464	1313.523560	1672.479980	1382.327759	19.167841
849.901367	1310.848633	1675.229126	1379.801392	18.923285
850.202087	1300.297607	1663.340698	1377.200806	21.182940
850.502808	1289.746582	1652.715454	1377.423828	24.155582
850.803467	1295.244995	1643.799194	1375.343384	22.980183
851.104065	1303.789795	1644.690796	1373.114380	20.335693
851.404663	1307.207642	1640.901245	1377.572632	21.086706
851.705139	1298.439941	1640.901367	1370.365112	21.002415
852.005615	1296.285278	1631.910645	1368.433228	21.496572
852.306030	1293.758911	1635.625610	1357.956543	18.778557
852.606384	1295.913696	1629.681519	1366.872925	21.260057
852.906616	1290.563965	1634.511230	1363.975098	21.343718
853.206909	1298.811523	1637.929199	1378.909790	23.619608
853.506958	1305.052979	1636.517456	1368.953247	19.278166
853.807129	1308.025024	1638.077759	1370.810913	19.022987
854.107178	1304.978638	1631.390503	1366.352661	18.802633
854.407166	1299.703125	1634.882813	1375.491821	22.611362
854.707092	1295.765015	1622.919922	1369.399048	22.507391
855.007019	1297.919800	1618.759155	1366.650024	21.422005
855.306763	1299.480225	1610.660034	1360.779907	19.699120
855.606567	1307.282104	1613.483398	1364.420898	18.660534
855.906250	1305.424438	1612.591919	1366.798462	19.980639
856.205933	1302.749634	1610.065552	1366.278442	20.672150
856.505493	1300.371948	1614.300903	1365.312500	20.686384
856.805054	1304.087036	1613.260742	1361.374390	18.529181
857.104492	1301.486450	1613.557983	1362.340454	19.500017
857.403931	1297.548462	1609.619995	1363.157715	21.023787
857.703308	1289.969604	1602.338257	1353.721191	20.409086
858.002563	1289.077881	1605.013062	1351.789429	19.849499
858.301819	1289.449463	1601.297852	1348.297119	18.870598
858.601013	1288.186401	1606.499023	1357.510620	21.778658
858.900208	1297.399902	1601.743774	1357.584839	19.775307
859.199219	1297.102661	1605.458984	1358.179321	19.807169
859.498291	1301.932251	1602.041016	1360.408447	19.485001
859.797302	1302.229492	1600.257690	1367.021484	21.740223
860.096191	1307.579224	1603.378418	1368.507446	20.597832
860.395020	1300.966309	1605.310181	1365.758301	21.289074
860.693787	1293.610352	1603.601196	1360.408569	21.548449
860.992554	1288.334839	1593.124634	1358.402344	22.988796
861.291260	1296.656860	1594.313477	1354.687256	19.495752
861.589844	1303.269653	1598.325806	1351.046509	16.192463
861.888428	1304.309937	1593.867676	1357.064941	18.219166
862.186890	1306.464722	1593.867676	1359.071167	18.304073
862.485413	1304.532837	1594.239258	1354.092773	17.106951
862.783813	1306.241821	1599.737671	1352.606812	15.797494
863.082153	1300.817749	1592.530151	1360.928589	20.606199
863.380371	1297.771362	1597.359863	1369.547852	23.958359
863.678589	1293.090210	1601.372192	1367.244507	24.054049
863.976746	1302.675293	1599.663208	1357.510620	18.463825
864.274902	1309.734009	1589.038086	1360.111206	18.036686
864.572937	1308.693726	1579.675781	1363.677856	20.290691
864.870911	1303.864136	1585.620117	1364.866577	21.650806
865.168884	1297.325439	1592.158691	1360.780029	21.522196
865.466736	1300.743286	1598.325806	1354.984497	18.227283
865.764587	1291.901367	1594.016235	1362.786255	23.462893
866.062317	1297.474121	1585.174194	1361.300171	22.184927
866.360107	1300.446289	1574.697632	1359.665527	21.593054
866.657715	1306.018921	1573.954468	1352.012329	17.165848
866.955322	1307.059204	1578.115601	1353.721191	17.214863
867.252808	1298.960205	1586.883301	1354.835815	19.406435
867.550293	1300.149048	1590.152466	1352.978271	18.216759
867.847717	1288.260620	1583.688110	1348.074341	20.246498
868.145081	1294.650757	1578.115601	1350.897827	19.842697
868.442383	1288.260620	1575.291992	1351.120728	21.900082
868.739624	1294.353394	1578.635620	1355.578857	21.536860
869.036804	1297.251221	1576.480835	1347.851318	18.121323
869.333984	1297.325562	1573.508789	1342.650024	16.411013
869.631042	1307.356445	1578.041138	1342.798706	13.093559
869.928101	1303.938477	1583.762573	1350.972046	16.808262
870.224976	1312.854858	1583.316772	1355.504517	15.769192
870.521851	1303.492676	1584.208374	1355.950317	18.687107
870.818726	1303.344116	1585.322876	1350.600464	16.758833
871.115479	1293.758911	1585.322876	1349.188843	19.011242
871.412231	1296.359497	1573.508789	1348.371460	18.766768
871.708862	1304.235596	1570.165161	1346.290894	15.814450
872.005493	1314.489380	1575.440796	1350.897827	13.952194
872.302063	1315.529663	1579.378784	1352.978271	14.193191
872.598572	1312.037598	1579.824585	1359.516968	17.730276
872.895020	1299.926147	1581.607788	1366.129883	23.503035
873.191406	1297.176880	1585.991577	1364.495117	23.308453
873.487671	1292.792969	1587.180298	1361.597290	23.372040
873.783997	1293.907593	1578.561401	1357.287842	22.265730
874.080200	1296.805298	1579.452759	1354.910034	20.557318
874.376343	1292.718750	1572.839844	1360.482788	24.190981
874.672424	1300.594727	1573.285767	1355.801758	20.245268
874.968445	1295.988037	1567.044312	1358.476685	23.053755
875.264465	1298.885864	1567.415894	1358.922485	22.357508
875.560364	1300.892090	1564.666626	1359.145386	22.084503
875.856201	1303.195313	1566.895874	1354.687256	19.526672
876.152039	1311.591553	1568.530396	1343.838989	12.550628
876.447754	1308.099243	1571.056641	1342.130005	12.941549
876.743469	1311.071411	1572.691406	1345.993774	13.348507
877.039063	1308.247925	1573.434448	1353.201050	16.951511
877.334595	1303.641235	1569.199219	1361.225830	21.684378
877.630127	1301.858032	1566.152832	1359.293945	21.731760
877.925537	1302.601074	1561.917603	1361.151489	22.578745
878.221008	1306.241821	1567.861694	1354.761475	18.545858
878.516296	1300.892090	1577.521118	1350.229004	17.835047
878.811646	1292.867310	1599.588867	1350.154663	18.677315
879.106812	1290.638306	1622.102539	1355.058716	19.435101
879.401978	1293.907593	1641.941528	1363.603638	20.025646
879.697083	1294.650635	1672.256958	1373.262817	20.818556
879.992126	1293.387573	1695.216797	1381.436157	21.911942
880.287109	1291.604370	1741.358521	1388.866333	21.625584
880.582031	1291.009766	1802.807007	1402.166626	21.718925
880.876892	1293.981934	1951.709595	1428.246948	20.413465
881.171753	1298.514282	2200.846680	1489.695313	21.187428
881.466492	1304.012817	2617.164795	1582.945190	21.241438
881.761230	1311.443115	3129.110596	1716.764526	22.298986
882.055786	1311.517456	3643.953857	1833.865601	22.394957
882.350403	1306.539063	3943.542725	1911.734741	22.950127
882.644958	1293.164551	3970.440186	1916.044312	23.265432
882.939453	1284.248169	3723.531982	1864.032227	23.768620
883.233826	1293.015869	3361.306641	1772.937134	23.203762
883.528137	1297.845581	2988.455811	1683.105347	22.788208
883.822449	1307.356323	2664.421387	1613.037720	22.525183
884.116577	1300.149048	2406.219482	1554.041382	22.954445
884.410828	1303.418335	2205.230225	1502.624023	22.089495
884.704956	1304.755737	2059.745605	1465.472656	21.287294
884.999023	1306.241821	1952.749878	1439.317993	20.583838
885.292969	1303.789917	1869.530762	1426.389282	21.670588
885.586914	1301.040649	1819.079224	1409.671265	20.969599
885.880798	1304.087036	1781.259155	1404.247070	20.990337
886.174622	1304.012817	1753.841431	1394.587891	20.135464
886.468384	1305.647461	1726.200806	1393.324829	20.848097
886.762085	1299.257446	1709.779907	1392.656128	22.751175
887.055664	1301.709351	1697.074219	1394.216187	23.397839
887.349304	1301.560791	1683.625366	1388.940796	22.870481
887.642822	1301.858032	1661.854614	1384.928345	23.075306
887.936340	1301.635010	1638.151978	1373.708618	21.417526
888.229736	1299.703125	1624.108887	1371.182251	22.033865
888.523071	1302.006470	1605.904663	1364.420898	20.537941
888.816284	1299.480347	1597.656860	1359.516846	20.134550
889.109619	1301.040649	1578.635620	1355.875977	19.753717
889.402710	1298.662964	1570.833862	1351.343628	19.355730
889.695862	1301.709351	1561.620239	1349.634644	18.439125
889.988892	1301.635132	1558.202515	1343.690308	16.391474
890.281921	1307.133423	1556.344971	1339.677979	13.059008
>>>>>End Processed Spectral Data<<<<<
