Jaz Data File
++++++++++++++++++++++++++++++++++++
Date: Fri Jun 04 11:43:24 2021
User: jaz
Dark Spectrum Present: Yes
Reference Spectrum Present: Yes
Processed Spectrum Present: Yes
Spectrometers: JAZA3586
Integration Time (usec): 32700 (JAZA3586)
Spectra Averaged: 10 (JAZA3586)
Boxcar Smoothing: 1 (JAZA3586)
Correct for Electrical Dark: No (JAZA3586)
Strobe/Lamp Enabled: Yes (JAZA3586)
Correct for Detector Non-linearity: No (JAZA3586)
Correct for Stray Light: No (JAZA3586)
Number of Pixels in Processed Spectrum: 2048
>>>>>Begin Processed Spectral Data<<<<<
W	D	R	S	P
191.335022	0.000000	0.000000	0.000000	0.000000
191.713211	403.835297	413.123077	409.259369	58.400089
192.091385	811.311340	818.147278	808.487854	-41.303570
192.469528	1227.035034	1231.419067	1215.369629	-266.088440
192.847641	1239.889526	1226.886597	1218.861816	161.715164
193.225739	1250.737671	1243.307495	1231.567505	258.004211
193.603790	1255.344482	1251.777954	1239.146484	454.167084
193.981842	1258.465210	1273.177124	1240.483887	-122.222870
194.359863	1257.573608	1281.276123	1244.496216	-55.173019
194.737854	1264.186523	1280.681763	1243.827515	-123.423546
195.115829	1271.096680	1273.622925	1245.462280	-1014.723389
195.493774	1282.242065	1270.576538	1239.592407	365.604218
195.871704	1281.424683	1272.656982	1241.821411	451.695099
196.249603	1276.817993	1278.749878	1243.976196	-1699.987305
196.627457	1269.982178	1276.297852	1252.446655	-277.650848
197.005310	1269.090454	1275.109009	1252.446777	-276.539429
197.383133	1273.994507	1267.158691	1260.991577	190.217682
197.760910	1276.520630	1259.802612	1264.780884	70.222115
198.138687	1275.480469	1264.335083	1262.328857	118.000504
198.516449	1270.353516	1266.044067	1251.109253	446.559784
198.894180	1268.644653	1274.291626	1247.542603	-373.687866
199.271866	1269.759155	1272.582642	1255.938965	-489.472534
199.649536	1270.204956	1278.972778	1246.948242	-265.250732
200.027191	1267.084351	1277.783813	1241.969849	-234.726761
200.404816	1259.951294	1277.189453	1236.100098	-138.362778
200.782410	1252.892456	1284.619751	1245.462280	-23.418877
201.159988	1255.641724	1290.563843	1247.617065	-22.978725
201.537537	1262.403198	1298.142822	1245.387817	-47.609287
201.915070	1270.279419	1294.130493	1242.564453	-116.200073
202.292557	1269.536377	1303.121094	1245.387817	-71.903419
202.670029	1261.734619	1310.848633	1252.075073	-19.667597
203.047485	1254.081421	1316.941406	1253.486816	-0.945919
203.424911	1256.979126	1313.151978	1250.886230	-10.846691
203.802292	1257.127563	1309.511230	1241.969849	-28.935957
204.179688	1262.031738	1306.316284	1238.923584	-52.181080
204.557037	1254.601440	1312.631958	1237.363159	-29.705545
204.934357	1252.669556	1313.894897	1237.809082	-24.271769
205.311661	1252.446655	1315.158081	1236.917480	-24.762911
205.688934	1252.372437	1306.464722	1239.146606	-24.450493
206.066177	1249.028809	1301.040649	1239.146484	-19.000143
206.443390	1242.192871	1294.799316	1245.536499	6.355928
206.820587	1241.524292	1296.656860	1246.205200	8.490278
207.197769	1240.706909	1299.257324	1249.400269	14.847648
207.574921	1243.456177	1299.554565	1246.279541	5.032879
207.952042	1243.307495	1294.724854	1237.511841	-11.271786
208.329147	1252.149536	1292.495850	1236.397339	-39.042469
208.706223	1254.006958	1297.994263	1244.421997	-21.790289
209.083267	1254.675781	1302.898193	1248.805786	-12.172753
209.460297	1252.520996	1306.539063	1247.914185	-8.528279
209.837280	1252.669556	1309.659668	1238.997925	-23.989479
210.214264	1252.075195	1309.956909	1242.341431	-16.816648
210.591217	1252.892456	1299.406128	1238.997925	-29.871929
210.968124	1249.400269	1293.907593	1236.620239	-28.714441
211.345016	1248.508667	1294.427734	1231.344727	-37.378677
211.721893	1246.428101	1297.548340	1237.437500	-17.587164
212.098724	1249.177368	1288.706421	1240.335327	-22.368462
212.475555	1249.994629	1282.242065	1240.929688	-28.110580
212.852356	1252.000854	1298.068481	1236.546021	-33.548145
213.229126	1251.555054	1306.093262	1236.323120	-27.928923
213.605865	1254.972900	1307.505005	1242.490112	-23.762209
213.982590	1256.533325	1294.130493	1245.536499	-29.249081
214.359283	1253.115356	1291.009766	1242.787231	-27.255011
214.735931	1248.434326	1292.941650	1232.384888	-36.060219
215.112579	1247.542603	1299.182983	1230.081421	-33.813038
215.489197	1249.400269	1301.114868	1227.035156	-43.247192
215.865799	1251.034790	1305.944702	1230.898804	-36.670948
216.242355	1249.474609	1304.830200	1233.573730	-28.724974
216.618896	1251.406494	1304.830078	1236.991699	-26.982080
216.995407	1252.000854	1299.926147	1232.087769	-41.550266
217.371902	1251.109253	1292.941650	1230.230103	-49.911438
217.748367	1253.412720	1290.415405	1229.561523	-64.458015
218.124802	1252.892578	1298.588745	1236.100098	-36.748116
218.501236	1253.858398	1297.994141	1230.081543	-53.872108
218.877609	1248.137085	1305.052979	1233.202271	-26.240147
219.253983	1253.041138	1299.554565	1227.852539	-54.153393
219.630295	1247.394043	1310.477051	1234.539673	-20.376913
220.006592	1252.223755	1309.956909	1230.378662	-37.838039
220.382889	1250.217651	1307.579224	1236.545776	-23.834555
220.759140	1254.155640	1297.697021	1228.298218	-59.385857
221.135391	1255.270142	1298.737305	1227.703735	-63.418922
221.511581	1247.914185	1306.613159	1223.097046	-42.278656
221.887772	1245.387939	1320.433472	1229.858643	-20.693167
222.263931	1238.106323	1321.845337	1236.397339	-2.040846
222.640060	1241.449829	1319.467773	1229.412720	-15.428642
223.016159	1244.124878	1310.551392	1232.459229	-17.561737
223.392212	1244.793457	1315.604004	1230.898926	-19.622122
223.768265	1248.805786	1321.251099	1239.295044	-13.128168
224.144302	1245.313599	1332.767944	1233.648071	-13.338991
224.520294	1248.359985	1323.405762	1233.945313	-19.207840
224.896286	1244.199097	1318.873413	1240.038208	-5.572048
225.272217	1251.480835	1311.666016	1238.997925	-20.740837
225.648148	1245.982422	1317.981812	1239.592285	-8.875265
226.024048	1250.291870	1318.055908	1235.728638	-21.491093
226.399902	1244.644897	1325.932007	1236.397339	-10.146207
226.775772	1248.582886	1336.928833	1239.146606	-10.681055
227.151581	1242.861694	1350.600586	1237.734741	-4.758684
227.527374	1243.010254	1354.761597	1235.505493	-6.715589
227.903137	1242.861694	1355.801636	1228.521118	-12.697524
228.278870	1246.576660	1353.572510	1232.607788	-13.055527
228.654572	1247.319702	1362.786133	1237.363281	-8.622784
229.030273	1255.195801	1368.953247	1236.694458	-16.263851
229.405930	1261.808716	1381.584839	1235.802856	-21.712057
229.781555	1265.598267	1386.042969	1238.180542	-22.763744
230.157181	1262.774658	1395.628052	1240.855347	-16.498873
230.532761	1251.555054	1394.662109	1241.746948	-6.853684
230.908325	1249.846069	1391.467163	1244.050415	-4.092367
231.283859	1251.926636	1384.631226	1246.948120	-3.751578
231.659332	1256.682007	1373.114258	1249.623047	-6.062719
232.034821	1258.168091	1369.399048	1247.691284	-9.418966
232.410263	1250.960571	1366.575562	1251.406372	0.385591
232.785690	1249.846069	1373.337280	1241.821411	-6.498161
233.161087	1251.629395	1368.061646	1240.335327	-9.700119
233.536469	1248.657227	1372.594238	1233.722534	-12.050228
233.911804	1247.245483	1374.749023	1240.335327	-5.419580
234.287140	1248.434448	1386.340210	1233.945313	-10.506549
234.662430	1251.629272	1390.649780	1232.607788	-13.682503
235.037704	1253.709839	1399.937500	1229.932983	-16.260162
235.412933	1249.846069	1402.241089	1234.688232	-9.946412
235.788162	1255.864624	1402.538086	1232.756348	-15.754913
236.163345	1255.344482	1399.417358	1234.539795	-14.440392
236.538513	1254.304321	1399.120117	1233.128052	-14.622900
236.913635	1245.239380	1395.776489	1240.038208	-3.455076
237.288742	1241.598511	1400.903442	1238.997925	-1.632458
237.663834	1244.719116	1399.863281	1241.598511	-2.011423
238.038879	1246.353882	1402.612305	1241.747070	-2.948200
238.413910	1254.898560	1407.813477	1245.536499	-6.122398
238.788910	1248.359985	1420.742188	1247.096802	-0.732781
239.163879	1251.257813	1428.544312	1243.233154	-4.526379
239.538834	1239.815308	1431.144897	1244.347656	2.368870
239.913757	1241.078247	1442.141602	1248.731567	3.806422
240.288651	1245.016235	1468.147461	1244.570557	-0.199738
240.663528	1253.561157	1496.233887	1245.016479	-3.521070
241.038361	1254.378540	1520.456543	1243.753296	-3.993282
241.413177	1253.561157	1545.496460	1251.109253	-0.839879
241.787979	1254.527222	1566.152710	1251.555054	-0.953763
242.162735	1257.722168	1600.777710	1248.731567	-2.620742
242.537476	1257.202148	1630.647461	1250.068970	-1.910100
242.912170	1258.688110	1650.709351	1252.000977	-1.705809
243.286865	1260.545654	1653.012695	1258.316650	-0.567947
243.661514	1262.774780	1638.746582	1257.499146	-1.403200
244.036148	1251.777832	1623.514526	1256.087402	1.159307
244.410751	1249.251587	1607.911011	1249.920288	0.186445
244.785339	1253.115356	1612.369141	1255.641602	0.703192
245.159882	1255.047241	1625.297852	1257.796387	0.742509
245.534378	1255.790405	1655.539063	1263.517700	1.933038
245.908890	1250.663452	1697.594360	1257.127686	1.446361
246.283356	1260.991577	1767.513184	1247.096802	-2.743175
246.657791	1257.424927	1842.112915	1252.892578	-0.775174
247.032196	1252.818115	1903.412720	1266.192749	2.055755
247.406586	1240.335327	1938.632324	1276.297852	5.150033
247.780960	1243.233154	1949.257690	1273.251343	4.251720
248.155289	1241.969971	1936.626099	1264.409424	3.230297
248.529602	1250.217529	1903.338501	1269.462036	2.946546
248.903870	1247.542603	1852.589722	1266.712769	3.168376
249.278122	1246.205200	1793.147461	1260.248413	2.567586
249.652344	1245.610840	1748.194336	1253.858521	1.641057
250.026550	1248.434448	1710.448608	1250.812134	0.514635
250.400711	1255.121582	1689.346680	1258.539551	0.787142
250.774857	1254.304199	1687.637695	1251.852173	-0.565852
251.148987	1256.756104	1713.792358	1252.446655	-0.942912
251.523071	1252.520874	1746.634155	1250.366211	-0.436067
251.897125	1252.520996	1767.735962	1253.115356	0.115362
252.271164	1246.502441	1771.005249	1254.452881	1.515805
252.645187	1243.456055	1771.896973	1253.412720	1.884159
253.019165	1240.483887	1770.782349	1258.390991	3.376797
253.393112	1241.747070	1759.562866	1256.682007	2.884218
253.767044	1245.462280	1737.123413	1256.310425	2.206427
254.140930	1251.406372	1713.569336	1257.499390	1.318370
254.514801	1256.310425	1698.188843	1253.486938	-0.638974
254.888657	1261.437256	1698.040039	1257.424927	-0.918988
255.262466	1258.539429	1707.922363	1248.062866	-2.331322
255.636276	1260.025513	1728.727173	1250.589111	-2.013307
256.010010	1254.229980	1742.918945	1247.171143	-1.444444
256.383759	1249.846069	1763.500854	1257.053467	1.403160
256.757446	1243.307373	1792.701660	1259.356812	2.921297
257.131134	1243.901733	1840.106812	1259.654053	2.642097
257.504791	1247.691284	1883.499634	1259.653931	1.881486
257.878418	1250.588989	1950.817871	1266.044067	2.207147
258.252014	1253.338257	2027.721191	1274.366089	2.715431
258.625580	1243.158691	2142.444580	1274.068726	3.437176
258.999115	1249.474487	2266.381592	1280.235840	3.024992
259.372650	1252.000854	2403.841553	1287.294678	3.064124
259.746124	1259.876953	2521.091309	1298.960327	3.098868
260.119598	1248.434204	2597.771729	1298.291504	3.694947
260.493042	1244.421997	2592.793457	1290.564087	3.422061
260.866425	1246.279663	2543.605225	1281.276123	2.697585
261.239838	1253.264038	2430.665039	1267.827271	1.236897
261.613159	1251.629272	2332.957031	1264.483643	1.188758
261.986511	1254.973022	2226.852539	1260.619995	0.581036
262.359802	1250.589233	2173.651611	1262.997559	1.344256
262.733063	1249.103149	2146.754150	1267.009888	1.994844
263.106293	1249.400269	2132.933838	1279.046997	3.355473
263.479523	1250.812012	2116.661621	1286.180176	4.084793
263.852692	1245.239380	2106.482178	1287.071655	4.857199
264.225861	1234.242554	2094.445068	1270.353516	4.197960
264.598969	1241.747070	2104.475830	1266.043945	2.816282
264.972076	1248.211426	2117.553467	1263.666382	1.777776
265.345154	1255.567383	2170.976807	1265.672485	1.103889
265.718201	1253.709839	2216.524414	1263.814941	1.049538
266.091217	1256.310547	2273.663086	1267.753052	1.124733
266.464203	1259.876953	2317.427490	1273.622925	1.299793
266.837158	1257.796387	2356.882324	1280.979004	2.109263
267.210114	1258.093628	2389.649902	1283.579468	2.252282
267.583038	1253.115356	2409.785889	1287.517700	2.974256
267.955902	1249.920410	2427.544189	1292.347290	3.602753
268.328766	1249.697510	2438.838135	1292.421509	3.592847
268.701569	1252.149536	2445.376953	1292.718628	3.399946
269.074371	1249.548950	2456.447998	1285.288452	2.961267
269.447144	1252.446655	2480.299072	1281.647583	2.378211
269.819885	1259.802612	2541.747314	1284.916870	1.959075
270.192596	1248.880127	2640.570068	1295.468018	3.347577
270.565277	1247.765625	2764.432617	1303.121216	3.649818
270.937927	1238.106323	2888.889648	1310.179810	4.366017
271.310577	1252.372437	2975.675049	1309.511230	3.315656
271.683136	1249.400391	3046.857422	1312.409058	3.505434
272.055725	1249.623169	3069.371094	1314.786743	3.580912
272.428284	1247.914185	3061.197998	1317.461548	3.835437
272.800812	1250.960571	3005.768311	1316.495728	3.734606
273.173279	1246.353882	2929.681885	1317.238770	4.210997
273.545776	1248.582886	2884.951904	1316.272705	4.136587
273.918152	1251.332153	2853.521484	1311.740112	3.770338
274.290558	1251.257935	2862.661133	1302.229492	3.163178
274.662964	1248.062866	2850.846680	1302.303711	3.384165
275.035278	1246.576782	2868.605225	1305.721802	3.646361
275.407593	1256.904785	2897.137451	1313.152100	3.429228
275.779907	1253.338257	2950.858398	1315.232544	3.646159
276.152161	1248.360107	3002.647217	1311.442993	3.595927
276.524384	1243.233154	3033.705811	1308.025146	3.618709
276.896606	1240.929688	3057.482666	1307.430786	3.660840
277.268799	1238.031982	3052.281494	1310.848633	4.013596
277.640930	1232.162109	3060.083252	1312.111694	4.373798
278.013031	1235.357056	3071.599854	1311.814453	4.163795
278.385162	1238.700562	3082.745361	1315.975464	4.190511
278.757233	1244.867798	3093.742432	1319.467651	4.034879
279.129272	1247.468384	3123.166260	1319.096191	3.818728
279.501282	1245.610840	3163.364014	1316.346924	3.688487
279.873230	1245.982300	3227.264404	1311.294434	3.296458
280.245178	1246.353882	3304.984619	1315.678223	3.367497
280.617126	1246.651001	3428.178955	1317.981689	3.269758
280.988983	1247.988525	3537.923828	1320.879395	3.183097
281.360870	1247.319702	3639.346924	1324.594604	3.230519
281.732697	1248.359985	3707.408447	1326.675049	3.184771
282.104492	1249.771851	3750.801025	1337.597534	3.511582
282.476288	1256.533325	3773.463623	1338.637817	3.262089
282.848053	1254.750122	3762.615479	1343.690552	3.546460
283.219757	1248.359985	3767.890869	1343.318970	3.768915
283.591461	1244.198975	3740.399170	1348.074341	4.161340
283.963135	1245.536499	3750.578369	1344.879272	3.965713
284.334747	1250.588989	3796.869141	1345.622437	3.732246
284.706360	1248.731567	3884.397705	1349.857544	3.836828
285.077942	1249.177246	3991.096436	1363.603638	4.173223
285.449524	1255.195801	4070.377686	1365.609741	3.922089
285.821014	1256.087524	4108.866211	1362.489014	3.729749
286.192535	1262.626099	4144.902832	1354.092773	3.173417
286.563995	1257.944946	4133.386230	1347.702759	3.121532
286.935425	1256.533325	4118.748535	1345.399414	3.104801
287.306824	1252.595215	4045.262939	1345.993774	3.344421
287.678223	1253.932739	3963.827393	1350.600586	3.567218
288.049561	1256.087524	3918.205078	1345.696655	3.366085
288.420898	1254.304199	3909.585938	1341.758423	3.293595
288.792145	1247.468384	3958.848877	1340.495483	3.430987
289.163452	1246.353882	4039.244385	1348.668701	3.663402
289.534668	1240.855469	4150.327148	1355.727417	3.948206
289.905914	1243.753296	4259.923828	1356.024536	3.722311
290.277039	1253.041016	4366.548340	1362.786255	3.524811
290.648193	1265.301025	4415.661621	1368.135864	3.264224
291.019318	1267.232788	4430.894043	1369.101929	3.219976
291.390381	1254.601440	4363.798340	1359.739868	3.381530
291.761475	1250.143188	4294.177246	1350.303345	3.290375
292.132507	1249.177368	4250.933105	1353.721191	3.482756
292.503510	1253.635620	4249.818359	1361.225952	3.590914
292.874481	1252.298096	4307.997559	1370.290649	3.861393
293.245422	1250.440552	4376.950684	1371.925415	3.885638
293.616364	1252.446655	4513.444824	1370.885132	3.631970
293.987213	1243.976196	4630.322754	1367.392944	3.644540
294.358093	1240.261108	4755.076660	1372.519897	3.762894
294.728943	1234.093872	4861.255371	1371.033813	3.775402
295.099731	1245.387939	4955.545898	1380.767456	3.648888
295.470490	1248.880127	5068.337402	1386.711548	3.608665
295.841248	1256.979126	5146.132324	1400.086060	3.679642
296.211975	1253.858398	5275.864746	1407.144897	3.811195
296.582642	1249.994751	5404.037109	1410.042847	3.852828
296.953308	1240.409668	5463.851074	1400.531860	3.791273
297.323883	1239.443726	5462.067871	1396.371094	3.716347
297.694519	1244.347656	5341.622559	1394.513550	3.665019
298.065063	1244.124756	5235.221191	1392.953125	3.729010
298.435608	1242.267212	5069.228516	1387.677734	3.799634
298.806122	1239.592285	4894.691406	1375.120483	3.707921
299.176575	1247.839966	4724.018066	1373.188599	3.605932
299.547028	1256.458984	4617.319824	1371.851196	3.433412
299.917450	1256.384644	4581.357422	1372.074097	3.479411
300.287872	1255.047241	4569.691895	1374.600220	3.606812
300.658234	1250.291870	4560.775391	1370.067871	3.618082
301.028564	1255.047241	4532.540039	1371.776855	3.561552
301.398865	1245.833618	4508.763184	1366.724243	3.704972
301.769135	1243.753296	4455.116699	1364.495239	3.759835
302.139374	1241.152710	4408.380371	1366.129883	3.945949
302.509583	1255.716064	4365.284668	1375.046265	3.837516
302.879791	1254.675781	4320.108887	1374.303101	3.902461
303.249939	1257.202026	4291.873535	1370.587891	3.736347
303.620087	1254.898682	4251.898926	1354.464233	3.322174
303.990173	1251.332153	4240.604980	1358.476563	3.584297
304.360260	1250.886230	4215.861816	1355.504517	3.528471
304.730286	1247.616943	4220.840332	1367.541626	4.033491
305.100281	1259.579590	4220.394531	1367.392944	3.641340
305.470276	1260.768677	4239.639160	1367.095703	3.569374
305.840179	1255.567505	4236.518066	1361.968872	3.569377
306.210144	1252.743896	4277.235840	1357.659302	3.468860
306.579987	1252.372314	4310.746582	1357.585083	3.440153
306.949890	1253.784058	4358.151855	1367.467285	3.662041
307.319702	1246.502441	4417.073730	1363.975098	3.705094
307.689484	1240.929810	4517.084961	1368.581665	3.896392
308.059265	1247.468384	4625.046875	1367.021484	3.539610
308.429016	1258.019409	4713.318848	1378.166870	3.477194
308.798737	1257.796509	4784.649414	1384.185181	3.583610
309.168396	1256.310547	4848.326660	1384.259766	3.562045
309.538055	1248.285767	4871.583496	1380.098755	3.637928
309.907684	1251.257813	4874.332520	1372.817017	3.355139
310.277313	1247.171143	4882.951660	1368.581909	3.339332
310.646851	1255.567383	4880.425293	1365.015259	3.019370
311.016388	1257.202026	4880.500000	1367.095703	3.032974
311.385895	1255.864502	4805.454102	1364.049316	3.047812
311.755371	1248.285645	4764.810547	1363.009155	3.262411
312.124817	1246.799683	4690.879395	1364.569458	3.419485
312.494232	1246.056641	4670.148926	1368.730469	3.582667
312.863617	1249.623169	4635.226563	1371.999634	3.614613
313.232971	1255.047363	4654.173828	1369.324829	3.361966
313.602295	1255.493164	4725.801758	1360.185669	3.016807
313.971619	1253.858521	4811.546875	1362.340454	3.049225
314.340820	1245.536621	4840.599121	1365.981079	3.350274
314.710083	1247.765625	4831.237305	1381.213257	3.723976
315.079285	1245.907959	4756.637207	1382.625000	3.894263
315.448486	1251.183472	4674.310059	1380.544556	3.779033
315.817596	1249.103027	4553.642090	1370.513672	3.674057
316.186707	1255.641724	4463.290039	1365.535522	3.425993
316.555786	1253.635620	4389.210449	1367.169922	3.620845
316.924866	1259.208252	4335.341309	1366.501343	3.487921
317.293884	1252.149414	4330.956543	1364.049316	3.634521
317.662872	1253.338257	4342.548340	1360.111328	3.456323
318.031830	1248.657227	4387.204102	1355.504517	3.404355
318.400757	1247.245483	4400.504395	1358.476685	3.527500
318.769684	1247.319702	4424.430176	1355.578735	3.407469
319.138550	1242.415894	4428.367676	1356.396240	3.577592
319.507416	1246.428101	4402.956543	1356.693359	3.493245
319.876190	1245.908081	4364.393066	1352.235229	3.409577
320.244995	1257.053345	4297.223145	1362.414673	3.465639
320.613770	1258.911011	4260.443848	1356.693359	3.257747
320.982483	1258.836670	4259.923828	1365.535522	3.555340
321.351166	1257.499390	4304.356934	1353.423950	3.148311
321.719818	1250.812134	4375.167480	1361.225952	3.533971
322.088440	1245.759399	4486.621094	1365.386719	3.691219
322.457062	1252.075195	4640.873535	1379.207153	3.751535
322.825623	1248.062866	4818.457031	1389.609497	3.964454
323.194183	1245.685181	4927.607910	1398.971680	4.163218
323.562653	1232.830688	5006.888672	1408.854004	4.664033
323.931183	1239.072144	5010.083496	1412.940552	4.610657
324.299591	1244.421997	4994.703125	1406.253418	4.315181
324.668060	1246.353882	4925.304688	1392.581543	3.974711
325.036407	1242.861694	4873.738281	1384.036743	3.888181
325.404755	1250.812012	4804.934082	1380.247437	3.641840
325.773102	1249.623169	4740.810547	1382.401978	3.803256
326.141388	1254.006958	4652.019043	1381.807617	3.761042
326.509674	1253.041016	4567.610840	1381.956177	3.889348
326.877899	1248.137085	4491.822266	1380.321655	4.075136
327.246124	1249.846069	4442.633789	1382.104858	4.142424
327.614288	1248.731567	4409.123047	1380.544556	4.170780
327.982422	1259.728394	4396.789063	1378.909790	3.799142
328.350525	1261.437256	4411.054688	1377.795410	3.694358
328.718628	1259.282471	4458.163086	1384.408203	3.911547
329.086700	1260.917114	4509.060547	1403.058228	4.376072
329.454712	1258.539429	4551.784668	1413.312012	4.699698
329.822693	1254.750000	4589.827637	1422.079712	5.017266
330.190674	1253.041138	4632.254395	1422.525513	5.015498
330.558563	1248.359985	4672.304199	1436.420288	5.492505
330.926483	1248.805786	4745.120117	1444.444946	5.595582
331.294312	1240.483887	4834.135254	1445.039429	5.692136
331.662231	1241.598511	4938.456055	1447.714233	5.575431
332.029999	1242.638672	5027.768066	1452.989746	5.557302
332.397766	1249.325806	5094.714844	1464.803711	5.603539
332.765503	1245.908081	5138.851074	1467.998657	5.704953
333.133240	1248.285645	5157.426270	1475.800659	5.820077
333.500916	1246.651001	5151.853516	1483.676758	6.069487
333.868561	1251.926514	5152.373535	1490.141235	6.107370
334.236176	1251.406372	5127.259277	1494.227905	6.264983
334.603790	1245.610840	5102.145020	1492.667480	6.406183
334.971344	1240.186646	5072.126465	1496.679688	6.693556
335.338867	1233.648071	5047.829590	1503.589844	7.077318
335.706360	1235.208374	5034.380859	1507.973755	7.179600
336.073853	1239.815308	5040.622559	1520.679565	7.389595
336.441284	1236.694580	5068.931641	1529.744507	7.646967
336.808655	1239.295166	5103.854004	1545.719604	7.929092
337.176086	1240.335327	5131.419922	1556.864868	8.134738
337.543396	1252.297974	5159.878418	1571.502563	8.168855
337.910706	1256.607544	5169.314453	1576.109375	8.165749
338.277954	1260.174194	5176.001953	1579.155762	8.145955
338.645264	1260.842896	5140.856934	1587.329102	8.414562
339.012421	1255.864624	5103.333984	1598.102905	8.895153
339.379669	1252.595215	5020.040527	1603.972656	9.326676
339.746796	1248.508545	4962.901855	1594.610718	9.317865
340.113953	1248.954468	4892.388184	1599.291626	9.615577
340.481018	1248.805664	4858.654785	1601.075073	9.758563
340.848114	1249.697388	4832.574707	1607.985229	10.000003
341.215118	1247.468384	4872.623535	1618.238892	10.227714
341.582153	1251.109131	5001.019043	1638.449219	10.329317
341.949066	1251.406372	5185.141602	1669.953613	10.639944
342.316010	1257.276367	5433.906738	1706.659180	10.759459
342.682922	1249.103027	5685.271973	1754.212891	11.386173
343.049835	1244.867798	6012.130371	1806.819336	11.787719
343.416656	1240.409546	6306.963379	1856.602173	12.161967
343.783478	1243.901855	6538.564941	1888.775269	12.179688
344.150269	1242.638672	6650.093750	1908.168335	12.307631
344.516998	1246.576660	6658.489746	1923.697266	12.511668
344.883728	1246.130859	6581.884277	1939.003784	12.985475
345.250427	1253.709839	6456.980469	1949.554688	13.373220
345.617065	1247.914185	6312.759277	1943.387695	13.731387
345.983704	1251.034912	6167.869141	1926.446655	13.736720
346.350281	1252.297974	6040.885254	1922.434448	13.994451
346.716827	1256.756226	5904.094238	1920.428223	14.280692
347.083405	1251.926636	5820.578125	1933.728149	14.923474
347.449860	1247.022583	5760.095703	1932.613892	15.191230
347.816376	1243.084473	5749.024902	1947.474243	15.632470
348.182770	1250.291870	5735.946777	1953.864624	15.684951
348.549194	1253.561157	5767.451172	1979.870483	16.090540
348.915558	1254.601440	5844.429199	1999.634766	16.232273
349.281921	1250.960571	5929.728516	2023.931763	16.520826
349.648193	1244.347656	5985.307129	2035.894531	16.695921
350.014526	1246.874023	6012.204590	2050.235107	16.858454
350.380737	1254.601440	6037.765137	2079.064209	17.236767
350.746948	1257.796387	6064.736328	2103.807373	17.599783
351.113159	1254.601440	6123.138672	2139.695313	18.179873
351.479309	1237.140259	6198.184082	2159.757080	18.597231
351.845428	1243.901978	6339.210938	2195.273682	18.671520
352.211517	1247.542847	6452.447754	2223.954834	18.759459
352.577576	1255.047363	6588.719238	2266.530273	18.964100
352.943604	1248.582886	6718.451660	2310.963379	19.422413
353.309601	1246.353882	6873.893066	2361.340576	19.813042
353.675537	1252.298096	7036.467285	2408.225342	19.984327
354.041473	1248.285767	7189.457031	2452.584229	20.270388
354.407379	1243.307495	7297.790527	2490.552979	20.600363
354.773254	1236.174316	7427.375000	2529.859131	20.895540
355.139038	1240.186768	7566.023438	2578.081299	21.149685
355.504913	1251.926636	7827.346191	2653.052979	21.308548
355.870636	1251.480835	8092.160645	2739.095703	21.746595
356.236389	1250.812012	8382.089844	2836.283447	22.232641
356.602081	1237.586060	8659.165039	2912.518311	22.568407
356.967804	1235.505615	8859.187500	2980.653564	22.891144
357.333405	1242.118530	8955.930664	3007.625732	22.887609
357.699036	1248.211426	8933.194336	3030.362061	23.190041
358.064606	1257.722168	8878.877930	3031.253906	23.271166
358.430176	1254.155640	8834.593750	3028.207275	23.403023
358.795654	1262.774658	8892.624023	3038.832764	23.277760
359.161163	1258.316528	9070.430664	3091.513428	23.466080
359.526581	1251.629272	9420.991211	3196.949219	23.812386
359.892029	1246.948242	9933.977539	3335.969482	24.047590
360.257416	1245.982300	10515.841797	3487.769531	24.183615
360.622772	1249.846069	11021.247070	3617.130859	24.226665
360.988098	1244.273315	11325.739258	3721.674805	24.573820
361.353394	1247.468384	11418.247070	3768.485596	24.786865
361.718658	1248.880127	11229.742188	3758.974609	25.149075
362.083893	1250.291870	10800.941406	3668.250977	25.317221
362.449097	1243.530273	10185.937500	3535.249023	25.627537
362.814209	1241.226929	9547.528320	3386.420898	25.826101
363.179382	1241.449829	8957.192383	3241.084717	25.916298
363.544434	1246.799683	8545.926758	3124.355225	25.723015
363.909546	1252.595215	8267.663086	3055.030518	25.693769
364.274536	1259.282593	8089.263184	3025.086670	25.853722
364.639587	1258.911133	7943.554688	3010.894775	26.209082
365.004517	1248.582886	7856.769531	2994.622314	26.422369
365.369507	1242.341431	7804.312012	2987.489502	26.594877
365.734344	1245.164917	7811.370605	2985.408936	26.503038
366.099274	1254.304199	7800.299316	2993.730713	26.572376
366.464081	1255.047241	7775.333496	2985.483398	26.539267
366.828918	1254.378418	7686.765137	2973.223389	26.721729
367.193665	1247.839844	7615.285645	2959.923096	26.888069
367.558411	1249.846069	7542.915527	2939.787109	26.854004
367.923126	1244.942017	7459.622559	2917.273438	26.909370
368.287781	1249.920410	7408.576172	2901.224365	26.812733
368.652435	1247.988525	7378.557129	2902.413086	26.986479
369.017059	1251.406372	7424.922363	2914.301514	26.935949
369.381653	1246.725342	7456.353027	2931.836670	27.137074
369.746185	1249.697388	7529.614746	2942.907959	26.962307
370.110687	1246.428101	7614.766113	2958.660156	26.886639
370.475220	1242.935913	7698.728027	2969.879639	26.750299
370.839661	1244.719116	7742.937500	3008.071289	27.135933
371.204041	1245.090698	7772.361816	3031.699951	27.371458
371.568451	1247.394165	7769.166504	3028.430420	27.309084
371.932770	1238.403442	7767.160645	3003.018799	27.028349
372.297150	1239.295166	7715.223145	2978.127686	26.850710
372.661377	1236.991821	7748.213379	2966.907471	26.568220
373.025696	1244.942139	7785.513184	2973.149170	26.422876
373.389862	1244.867798	7876.162598	2997.297607	26.426661
373.754059	1247.988403	7944.595215	3037.792725	26.727032
374.118225	1248.359985	8044.309082	3060.455078	26.664341
374.482361	1249.251587	8193.879883	3088.689697	26.487207
374.846436	1254.155640	8406.015625	3133.717529	26.280743
375.210510	1248.582886	8727.746094	3197.989014	26.064495
375.574524	1248.211304	9053.860352	3282.471436	26.061384
375.938538	1247.468384	9388.074219	3351.424561	25.845201
376.302460	1244.050415	9648.357422	3413.318359	25.811386
376.666412	1245.536621	9811.377930	3443.856689	25.663795
377.030304	1243.530396	9796.962891	3426.395508	25.520342
377.394196	1250.960571	9651.701172	3390.878906	25.472975
377.757996	1254.750000	9408.434570	3310.260498	25.209591
378.121796	1247.319702	9112.040039	3234.323242	25.264771
378.485565	1239.889404	8825.974609	3153.110352	25.220137
378.849304	1234.614014	8622.384766	3085.717773	25.056324
379.212982	1242.044312	8499.116211	3053.321533	24.958788
379.576630	1244.421997	8433.953125	3030.733643	24.846010
379.940277	1247.542603	8413.668945	3038.312500	24.989370
380.303864	1251.183472	8401.038086	3031.699951	24.902836
380.667450	1257.127808	8418.870117	3031.774170	24.779533
381.030945	1255.493164	8415.452148	3017.507813	24.609283
381.394501	1254.081299	8492.503906	3016.913330	24.353813
381.757935	1255.864624	8557.815430	3013.272461	24.067648
382.121399	1251.629272	8644.006836	3020.851563	23.933062
382.484741	1252.966797	8782.209961	3051.315674	23.884855
382.848145	1252.149414	8924.648438	3088.541260	23.934729
383.211487	1253.189819	9072.659180	3126.361328	23.955225
383.574768	1253.709839	9137.155273	3139.884766	23.925770
383.938019	1252.297974	9181.364258	3148.429443	23.913679
384.301270	1256.830566	9196.374023	3156.454102	23.926105
384.664459	1257.276245	9219.184570	3148.057617	23.747843
385.027649	1254.824341	9235.234375	3142.410889	23.652752
385.390778	1248.137207	9340.892578	3146.051514	23.452017
385.753876	1249.474609	9420.024414	3176.366943	23.583387
386.116943	1251.257813	9535.491211	3192.416260	23.431963
386.479980	1252.446655	9572.715820	3190.335938	23.291183
386.842987	1249.251587	9623.391602	3177.853271	23.030445
387.205994	1252.372437	9631.787109	3170.274170	22.888254
387.568909	1252.743896	9621.385742	3169.085205	22.899073
387.931793	1250.663452	9562.538086	3143.302002	22.770296
388.294678	1248.211426	9519.813477	3121.160156	22.643120
388.657471	1253.784180	9495.887695	3094.114014	22.328400
389.020294	1258.539551	9545.595703	3104.293213	22.272730
389.383057	1257.053467	9703.415039	3140.850342	22.303059
389.745819	1250.366211	9918.299805	3186.546631	22.337278
390.108521	1247.617065	10178.582031	3231.648438	22.215197
390.471191	1248.805786	10465.686523	3288.044189	22.125038
390.833801	1251.777954	10704.420898	3339.312744	22.084139
391.196442	1248.657227	10865.508789	3361.306641	21.968203
391.558960	1247.839966	10885.497070	3348.080811	21.792025
391.921509	1246.502441	10839.726563	3316.576416	21.578501
392.284027	1241.970093	10792.395508	3295.028564	21.497038
392.646484	1239.815308	10765.201172	3271.771729	21.332012
393.008911	1238.626465	10738.674805	3260.477783	21.282536
393.371307	1245.685059	10743.875977	3253.418945	21.138065
393.733673	1241.895630	10714.824219	3222.731689	20.910492
394.096008	1249.548828	10638.514648	3181.344971	20.575174
394.458344	1246.799683	10508.633789	3148.949219	20.537504
394.820587	1250.737793	10270.270508	3103.699219	20.543873
395.182831	1250.366333	10065.195313	3042.028076	20.325541
395.545013	1248.805786	9788.937500	2954.573486	19.973553
395.907196	1246.205200	9622.945313	2898.474609	19.724491
396.269287	1243.381714	9517.138672	2871.057373	19.672752
396.631409	1250.291870	9491.652344	2852.555664	19.441740
396.993469	1255.864624	9469.063477	2831.528076	19.184526
397.355530	1254.898682	9478.277344	2816.741943	18.992720
397.717499	1251.777954	9524.643555	2813.621094	18.879108
398.079468	1249.103027	9549.906250	2818.970703	18.912239
398.441376	1248.582886	9528.358398	2815.255859	18.921684
398.803284	1244.942017	9478.797852	2796.308594	18.841314
399.165131	1238.700684	9482.586914	2777.807373	18.669672
399.526978	1240.484009	9509.781250	2756.185303	18.329264
399.888763	1249.400269	9526.277344	2738.278320	17.988403
400.250519	1261.585938	9504.358398	2722.228760	17.720285
400.612244	1265.003784	9512.383789	2712.569580	17.551826
400.973938	1263.889282	9582.971680	2711.157715	17.396973
401.335602	1257.499268	9702.152344	2712.197998	17.226269
401.697205	1253.115356	9870.893555	2725.943604	17.090580
402.058807	1241.449951	10025.962891	2744.222412	17.107067
402.420349	1239.146606	10268.264648	2760.643311	16.851000
402.781860	1239.443726	10481.959961	2779.887695	16.666933
403.143341	1241.301147	10696.545898	2797.943359	16.463266
403.504822	1241.375488	10853.101563	2820.605713	16.430244
403.866241	1240.929688	10996.208008	2835.837646	16.349180
404.227631	1242.118530	11115.687500	2834.574463	16.128473
404.588959	1246.502441	11149.867188	2816.221680	15.850362
404.950287	1247.839966	11067.984375	2784.865967	15.651766
405.311554	1254.155640	10983.502930	2750.612305	15.380853
405.672821	1255.790161	10861.645508	2721.114014	15.254486
406.034027	1260.397095	10753.089844	2690.873047	15.069233
406.395203	1252.297974	10558.788086	2661.077881	15.137607
406.756348	1246.502441	10455.210938	2629.647705	15.019969
407.117493	1245.239258	10406.913086	2606.911133	14.862698
407.478516	1253.784058	10458.553711	2597.177490	14.594537
407.839600	1260.025513	10495.780273	2602.601563	14.536722
408.200592	1257.499146	10620.831055	2603.716064	14.377542
408.561554	1255.790283	10773.151367	2597.549072	14.098013
408.922485	1252.892578	10947.835938	2598.069092	13.875032
409.283417	1250.886353	11035.217773	2588.558350	13.671574
409.644257	1248.731567	11119.476563	2596.508545	13.654258
410.005096	1251.332153	11194.448242	2591.827637	13.481644
410.365906	1250.812134	11206.708008	2583.505615	13.385973
410.726715	1254.155762	11163.315430	2561.214844	13.190413
411.087433	1256.533325	11074.152344	2521.834473	12.888065
411.448120	1256.904785	11006.239258	2500.360840	12.754267
411.808807	1253.041016	10968.940430	2486.020264	12.690326
412.169434	1251.480713	10950.140625	2483.494141	12.702924
412.530029	1255.715942	11024.815430	2473.388916	12.464537
412.890564	1261.957397	11142.288086	2460.460205	12.130189
413.251099	1258.390991	11296.614258	2464.769775	12.017851
413.611572	1257.647827	11460.971680	2469.673828	11.878736
413.972076	1252.372314	11598.655273	2481.562256	11.880498
414.332489	1248.062866	11701.043945	2478.144287	11.767756
414.692871	1246.130981	11906.639648	2492.930664	11.695498
415.053223	1241.226929	12089.944336	2483.865479	11.454244
415.413574	1247.171265	12404.987305	2503.110107	11.256135
415.773834	1243.158813	12597.133789	2520.645752	11.251451
416.134094	1241.672729	12895.905273	2558.614258	11.300114
416.494263	1242.192749	13157.674805	2573.326172	11.171460
416.854462	1256.533325	13571.688477	2595.691162	10.874063
417.214630	1266.118286	13996.700195	2616.124512	10.604434
417.574738	1261.882935	14460.350586	2650.452393	10.520687
417.934784	1250.143188	14940.569336	2685.597412	10.485096
418.294861	1244.867676	15489.518555	2734.860352	10.460015
418.654846	1245.239258	16104.668945	2777.361328	10.310773
419.014832	1246.651001	16730.000000	2810.203125	10.098282
419.374756	1249.771729	17380.373047	2864.815674	10.012299
419.734680	1257.276245	18072.353516	2923.291992	9.907868
420.094543	1255.641724	18675.097656	2967.799561	9.828998
420.454376	1253.784180	19024.765625	2990.684570	9.773802
420.814148	1246.056641	19215.279297	2993.953857	9.727172
421.173920	1245.759399	19328.291016	3009.483154	9.753744
421.533691	1241.524170	19451.486328	3003.836182	9.677735
421.893341	1245.462280	19458.767578	2985.780518	9.555203
422.253021	1248.434204	19398.880859	2956.505127	9.410627
422.612640	1248.211426	19316.181641	2925.298096	9.282098
422.972260	1245.090698	19353.630859	2916.902100	9.232171
423.331757	1244.421997	19483.882813	2907.614258	9.118649
423.691315	1246.948242	19673.353516	2910.511963	9.028151
424.050781	1245.536499	19659.978516	2896.394531	8.965018
424.410248	1248.657227	19441.751953	2867.342041	8.897249
424.769653	1256.013184	19108.429688	2822.908936	8.776939
425.128998	1256.087524	18733.722656	2765.993164	8.639073
425.488373	1246.428101	18267.843750	2711.306396	8.606090
425.847656	1238.849243	17824.554688	2658.477295	8.559347
426.206940	1238.923462	17377.029297	2626.601318	8.598765
426.566193	1247.394043	17001.501953	2591.678955	8.532917
426.925385	1251.480713	16565.716797	2552.224365	8.493690
427.284576	1249.846069	16153.262695	2499.692383	8.386307
427.643677	1247.914185	15820.164063	2463.209473	8.339791
428.002777	1242.935913	15626.976563	2434.602783	8.284646
428.361847	1245.833618	15459.870117	2412.609375	8.208617
428.720856	1238.403442	15258.362305	2380.659180	8.147354
429.079865	1239.592285	15094.895508	2357.402344	8.067741
429.438812	1239.146484	15031.664063	2344.399658	8.013426
429.797760	1244.867676	15015.688477	2340.164307	7.953750
430.156616	1249.548828	14889.596680	2318.913574	7.839890
430.515503	1251.926514	14782.006836	2300.114990	7.747097
430.874268	1258.167969	14759.195313	2272.845947	7.515561
431.233093	1254.601440	14876.221680	2275.669434	7.495936
431.591827	1246.799683	15062.721680	2270.616943	7.410416
431.950562	1237.140259	15216.975586	2279.458984	7.455873
432.309204	1238.849365	15356.441406	2269.874023	7.303120
432.667877	1248.062866	15523.696289	2279.979004	7.228514
433.026459	1250.217529	15619.546875	2277.303955	7.147769
433.385010	1245.387817	15707.668945	2287.409180	7.205097
433.743561	1244.719116	15695.706055	2287.260742	7.214328
434.102051	1243.976074	15716.213867	2292.759033	7.246861
434.460510	1255.270142	15720.078125	2289.638428	7.150930
434.818939	1257.722046	15681.812500	2279.681885	7.085090
435.177338	1260.619995	15659.149414	2276.486816	7.055351
435.535675	1257.424927	15620.808594	2278.864502	7.111413
435.894012	1252.297974	15646.815430	2279.236084	7.134231
436.252289	1249.697510	15796.906250	2293.056152	7.172225
436.610535	1249.994629	15897.734375	2278.790039	7.023578
436.968719	1252.372314	16186.402344	2282.430908	6.897392
437.326935	1252.075073	16484.654297	2284.065430	6.774889
437.685028	1247.096802	16818.568359	2302.121094	6.775367
438.043152	1242.044189	17039.693359	2315.421631	6.794539
438.401215	1240.260864	17339.580078	2330.207520	6.770141
438.759277	1244.644897	17734.646484	2354.281494	6.729148
439.117249	1251.703613	18298.976563	2379.842041	6.617706
439.475250	1255.715942	18699.021484	2399.606689	6.557764
439.833130	1252.446655	19135.701172	2426.355469	6.564291
440.191071	1254.081421	19267.585938	2434.825928	6.554774
440.548889	1256.013184	19354.521484	2433.265625	6.504694
440.906708	1260.396973	19236.972656	2416.027344	6.428535
441.264496	1260.397095	19031.378906	2395.891357	6.389597
441.622223	1263.963623	18786.775391	2369.365234	6.308357
441.979950	1263.517822	18494.023438	2349.600830	6.303257
442.337616	1256.310425	18302.023438	2344.473633	6.383794
442.695251	1250.886353	18057.345703	2330.802002	6.425599
443.052887	1245.313599	17951.091797	2319.062256	6.427409
443.410461	1248.434326	18015.509766	2308.957031	6.325031
443.768005	1243.679077	18256.625000	2320.845459	6.331451
444.125458	1245.164917	18570.775391	2329.761719	6.260078
444.482941	1247.691284	18958.189453	2338.306396	6.158015
444.840393	1259.282593	19492.724609	2359.482666	6.033968
445.197754	1262.403198	19945.525391	2389.872803	6.034696
445.555084	1253.635376	20312.505859	2420.336914	6.121567
445.912415	1244.496216	20523.230469	2445.376953	6.229043
446.269714	1250.291870	20683.054688	2444.782227	6.146786
446.626953	1260.174194	20684.615234	2437.723633	6.062205
446.984161	1259.282471	20516.021484	2416.621826	6.010049
447.341309	1251.629272	20271.937500	2406.293701	6.070693
447.698456	1245.462280	19946.861328	2382.293701	6.078858
448.055542	1251.183472	19719.646484	2365.204346	6.032017
448.412598	1252.743774	19363.734375	2333.625732	5.968100
448.769653	1252.966675	19047.947266	2304.498779	5.909150
449.126617	1252.223755	18586.898438	2273.217285	5.889892
449.483582	1253.338379	18259.298828	2257.762451	5.906306
449.840515	1252.520996	17921.296875	2245.725586	5.958474
450.197388	1251.926636	17699.427734	2238.295166	5.997072
450.554230	1249.326050	17601.126953	2220.611328	5.939929
450.911041	1250.737671	17560.927734	2221.354248	5.950983
451.267822	1240.929688	17654.773438	2221.874268	5.976325
451.624573	1239.740845	17689.472656	2222.691650	5.975482
451.981262	1235.134155	17668.814453	2205.824707	5.906714
452.337921	1246.502441	17487.888672	2190.815674	5.814240
452.694580	1240.781250	17152.634766	2175.806396	5.876280
453.051147	1250.812012	16908.177734	2168.153320	5.858849
453.407715	1251.926514	16541.939453	2148.611572	5.864515
453.764221	1259.876953	16433.011719	2142.072998	5.814198
454.120728	1255.567383	16111.281250	2123.497314	5.842398
454.477142	1258.167969	16022.340820	2113.094971	5.790551
454.833557	1261.140137	15867.867188	2107.373779	5.793452
455.189911	1258.242310	15871.656250	2101.057861	5.767410
455.546265	1251.183594	15969.140625	2106.853516	5.813782
455.902557	1252.000854	16033.414063	2101.057861	5.744085
456.258820	1256.681885	16287.082031	2111.757568	5.688975
456.615051	1263.666382	16556.875000	2122.679932	5.616961
456.971252	1265.969727	16917.763672	2147.199951	5.630219
457.327393	1256.979126	17501.412109	2182.493896	5.697427
457.683502	1254.081421	18184.994141	2217.416260	5.689799
458.039612	1245.982300	19151.599609	2270.393799	5.721174
458.395630	1254.675659	20081.574219	2317.204834	5.643676
458.751648	1249.994629	20897.044922	2357.922607	5.639157
459.107605	1247.765503	21627.365234	2390.392578	5.606720
459.463562	1244.496216	21835.935547	2401.166504	5.617239
459.819458	1243.976074	21726.931641	2395.519531	5.621960
460.175323	1251.406372	21124.337891	2360.077393	5.578800
460.531158	1250.812012	20404.939453	2319.359375	5.578680
460.886932	1258.539429	19627.287109	2267.198730	5.491171
461.242676	1250.291870	18891.392578	2234.356934	5.578252
461.598419	1252.743774	18337.615234	2198.468750	5.535453
461.954102	1246.651001	17802.560547	2182.196533	5.650825
462.309723	1252.520874	17331.109375	2148.611572	5.573193
462.665344	1258.836670	16943.472656	2123.125977	5.510420
463.020905	1254.304199	16746.869141	2107.299561	5.505837
463.376373	1247.765503	16744.638672	2096.079834	5.474100
463.731873	1235.431274	16764.476563	2109.899902	5.631181
464.087341	1237.066162	16807.720703	2116.289795	5.646671
464.442749	1244.050659	16906.916016	2125.652100	5.628609
464.798126	1248.805908	17034.494141	2127.138428	5.564106
465.153503	1255.047241	17222.998047	2135.757568	5.515487
465.508820	1255.195801	17382.824219	2133.082764	5.443373
465.864105	1249.771729	17480.976563	2136.797852	5.464943
466.219330	1238.329102	17697.421875	2144.896729	5.508005
466.574524	1227.555298	17726.845703	2160.128662	5.652203
466.929657	1228.892700	17636.197266	2163.621094	5.697026
467.284790	1236.991699	17456.828125	2157.825439	5.677207
467.639893	1243.307495	17228.201172	2139.101318	5.604002
467.994934	1240.558228	17074.171875	2133.602783	5.640182
468.349945	1237.586304	16829.642578	2118.593506	5.650359
468.704926	1237.957642	16687.500000	2110.643066	5.648617
469.059875	1239.443726	16530.498047	2091.250000	5.570618
469.414764	1241.672729	16466.003906	2081.070557	5.513528
469.769653	1241.969971	16412.505859	2086.865967	5.569322
470.124451	1244.199097	16493.568359	2098.308594	5.600950
470.479248	1245.908081	16523.662109	2098.234619	5.578873
470.834015	1250.217529	16594.767578	2102.767090	5.556042
471.188721	1251.555054	16795.906250	2109.454346	5.519042
471.543365	1250.217529	17069.416016	2134.048584	5.587079
471.898010	1241.152588	17352.064453	2149.651855	5.639030
472.252625	1244.793457	17588.716797	2165.849854	5.635467
472.607178	1236.768799	17799.068359	2187.174805	5.738370
472.961700	1239.443726	17862.447266	2186.208984	5.695512
473.316193	1239.666626	17940.169922	2188.140869	5.679315
473.670654	1253.189575	17961.345703	2170.010986	5.487268
474.025055	1255.121460	18098.435547	2182.419678	5.505438
474.379456	1251.852173	18159.363281	2174.171875	5.455088
474.733795	1241.895630	18269.404297	2180.636230	5.513083
475.088104	1243.678833	18545.513672	2187.249023	5.453585
475.442383	1253.115234	18882.998047	2210.877441	5.432607
475.796570	1253.263916	19190.759766	2232.425049	5.458739
476.150787	1244.867798	19580.921875	2263.483643	5.555262
476.504944	1231.790405	19960.607422	2292.238770	5.662122
476.859070	1235.282715	20361.396484	2303.532715	5.585296
477.213135	1242.861694	20637.951172	2302.566895	5.463781
477.567200	1249.697388	20909.232422	2315.124268	5.419390
477.921173	1253.263916	21158.888672	2334.665771	5.432644
478.275146	1253.784180	21393.312500	2357.031006	5.478017
478.629089	1256.310303	21668.531250	2363.049561	5.421945
478.983002	1250.886230	22130.546875	2380.733398	5.411233
479.336823	1248.954468	22651.037109	2407.928467	5.415239
479.690643	1242.490112	23352.603516	2452.732910	5.473707
480.044403	1246.428101	24246.240234	2500.063721	5.450634
480.398163	1246.279541	25445.265625	2559.728760	5.427703
480.751862	1247.617065	27115.216797	2630.241943	5.345006
481.105499	1247.691284	29357.822266	2751.652588	5.350246
481.459137	1248.657227	32655.525391	2920.245361	5.322365
481.812744	1246.873901	37012.121094	3154.596436	5.334012
482.166290	1247.839844	42177.199219	3430.259033	5.332160
482.519806	1245.982300	47278.675781	3733.265625	5.403297
482.873291	1249.846069	51445.269531	4019.033936	5.516814
483.226715	1252.669556	54138.000000	4218.685547	5.608391
483.580139	1254.601440	55107.875000	4309.409180	5.672464
483.933502	1255.715942	54493.839844	4268.468750	5.659014
484.286804	1251.480835	52532.843750	4129.225098	5.611676
484.640106	1253.041016	49733.484375	3924.744141	5.510888
484.993347	1253.486938	46826.984375	3741.513672	5.459373
485.346558	1256.904907	44675.324219	3615.570313	5.432408
485.699738	1250.663452	43699.281250	3565.564453	5.453419
486.052887	1250.737793	43888.457031	3567.273438	5.433066
486.405975	1242.490112	44789.082031	3620.177002	5.460099
486.759064	1247.096802	45903.175781	3677.910400	5.443410
487.112061	1244.124634	46471.074219	3701.093018	5.432531
487.464996	1251.777832	46198.980469	3680.659424	5.403855
487.817963	1256.681763	44921.792969	3609.700439	5.388784
488.170868	1256.830444	43077.375000	3523.434814	5.419835
488.523743	1253.263916	40840.121094	3402.841797	5.430029
488.876587	1248.731445	38910.253906	3296.440186	5.437137
489.229401	1254.081177	37600.222656	3222.211914	5.414965
489.582153	1256.161743	37364.312500	3202.521484	5.390361
489.934845	1256.161743	37990.238281	3236.255127	5.390345
490.287537	1261.288696	39260.664063	3299.114990	5.362789
490.640198	1264.260620	40621.292969	3377.504639	5.369420
490.992798	1260.025391	41356.371094	3427.510498	5.405693
491.345337	1244.050415	41163.707031	3431.448486	5.479501
491.697876	1234.391113	39805.300781	3360.192139	5.511410
492.050354	1243.976196	37794.453125	3250.595703	5.489995
492.402832	1258.613647	35130.031250	3101.172607	5.439864
492.755219	1269.684814	32380.755859	2949.818115	5.400435
493.107605	1262.700317	29854.015625	2814.215820	5.426528
493.459930	1254.378540	27942.650391	2699.789307	5.415903
493.812225	1251.926514	26629.500000	2629.053223	5.426550
494.164490	1256.979126	25831.193359	2578.824707	5.378994
494.516724	1258.762329	25434.267578	2557.276611	5.371198
494.868896	1250.812012	25416.656250	2549.177979	5.372732
495.221039	1249.251587	25633.177734	2565.004150	5.395983
495.573120	1250.812012	25893.531250	2585.734619	5.417108
495.925201	1261.808716	26186.583984	2605.127686	5.389493
496.277222	1261.883179	26423.531250	2614.935547	5.377439
496.629211	1259.133911	26528.896484	2614.787109	5.364725
496.981140	1251.703613	26411.498047	2606.093506	5.383152
497.333069	1255.270142	26056.478516	2583.579834	5.355826
497.684967	1247.691284	25622.552734	2563.666748	5.398904
498.036804	1244.496216	25087.125000	2545.537109	5.456785
498.388580	1241.821411	24592.568359	2526.441162	5.501408
498.740326	1249.846069	24114.203125	2502.441650	5.478376
499.092072	1248.508545	23647.880859	2479.333252	5.494907
499.443756	1245.833618	23216.626953	2449.686523	5.479333
499.795410	1244.124634	22839.541016	2427.321045	5.478924
500.147003	1249.177368	22519.962891	2409.711426	5.456000
500.498566	1251.109253	22217.626953	2403.693115	5.497260
500.850098	1252.892456	22021.916016	2396.485596	5.506244
501.201599	1254.527222	21890.250000	2389.798584	5.501486
501.553009	1254.527222	21842.771484	2379.470459	5.464008
501.904449	1252.520874	21802.423828	2378.132813	5.477457
502.255859	1246.873901	21864.169922	2382.516602	5.508204
502.607178	1243.753174	21926.880859	2375.680908	5.472711
502.958405	1239.815063	22007.796875	2375.606445	5.468954
503.309692	1236.991699	22022.583984	2368.473389	5.443587
503.660919	1238.403442	22146.966797	2385.340088	5.485488
504.012115	1242.638672	22140.798828	2380.882080	5.446620
504.363251	1250.960571	22144.884766	2389.055420	5.447013
504.714294	1251.629395	21995.908203	2380.138916	5.440100
505.065369	1257.945068	21957.568359	2384.374268	5.441786
505.416443	1267.084229	21841.134766	2374.120361	5.380740
505.767395	1271.542480	21802.351563	2381.476563	5.406188
506.118317	1263.517700	21741.496094	2386.975098	5.486173
506.469238	1253.709839	21892.478516	2406.442383	5.585278
506.820160	1254.527100	22043.537109	2419.445068	5.603528
507.170929	1253.041138	22290.818359	2423.085938	5.561637
507.521729	1257.127808	22496.931641	2431.853516	5.530775
507.872498	1249.697388	22754.984375	2435.345947	5.513288
508.223236	1253.858398	23027.750000	2460.683105	5.542531
508.573883	1249.920288	23265.443359	2461.574463	5.503635
508.924500	1257.647827	23507.896484	2471.085449	5.453591
509.275116	1257.053345	23678.197266	2472.571533	5.421303
509.625702	1252.966797	23910.541016	2483.270996	5.429991
509.976196	1252.000854	24030.466797	2498.280273	5.471305
510.326660	1250.886230	24222.835938	2515.667236	5.505763
510.677124	1264.409302	24386.451172	2533.648193	5.489303
511.027557	1258.093628	24634.322266	2540.261475	5.484922
511.377869	1266.861450	24803.361328	2542.787842	5.421054
511.728180	1262.774780	24825.578125	2545.314209	5.443068
512.078430	1262.923340	24799.650391	2544.273926	5.444047
512.428650	1255.790405	24692.654297	2541.747314	5.486898
512.778931	1247.022583	24548.802734	2529.116211	5.502128
513.129028	1249.251587	24353.755859	2529.190186	5.539780
513.479126	1254.824341	24167.849609	2517.450439	5.510517
513.829285	1254.527222	24032.099609	2519.010986	5.551442
514.179382	1254.824341	23919.458984	2505.785156	5.519440
514.529297	1249.251587	23883.125000	2509.351563	5.567319
514.879272	1247.394043	23994.726563	2508.979980	5.546083
515.229187	1245.536499	24138.279297	2528.967529	5.606279
515.579163	1245.239258	24565.890625	2546.725830	5.580832
515.928955	1248.359985	25105.476563	2571.691406	5.546904
516.278748	1248.657227	25856.453125	2606.762451	5.519004
516.628540	1251.406372	26615.677734	2657.956787	5.545401
516.978333	1255.418823	27507.460938	2701.201172	5.507314
517.327942	1255.864624	28407.119141	2738.427002	5.460383
517.677612	1257.647827	29184.326172	2761.535156	5.385128
518.027222	1258.093628	29651.986328	2796.011719	5.416369
518.376831	1255.715942	29800.888672	2813.769775	5.458204
518.726379	1248.805908	29587.494141	2809.534424	5.507413
519.075867	1245.165039	29020.115234	2780.705078	5.528507
519.425293	1247.542847	28275.826172	2740.432861	5.523437
519.774658	1249.846069	27500.404297	2708.259766	5.555744
520.124084	1252.000854	26850.476563	2686.489258	5.603804
520.473389	1251.035034	26358.146484	2665.684570	5.634458
520.822693	1251.109253	26057.369141	2642.502197	5.609040
521.171997	1244.347656	25904.603516	2619.988281	5.578371
521.521240	1240.706909	25890.115234	2613.523926	5.569371
521.870361	1236.917358	25969.765625	2612.037842	5.559896
522.219482	1238.106323	26175.509766	2619.914063	5.541105
522.568604	1243.307495	26469.005859	2627.195557	5.486024
522.917664	1249.474731	26907.912109	2658.997070	5.493407
523.266724	1256.013306	27573.146484	2695.925781	5.471388
523.615662	1258.019409	28453.333984	2743.330811	5.461645
523.964600	1260.917236	29579.466797	2804.630615	5.451245
524.313538	1263.443481	30792.978516	2886.586670	5.496677
524.662354	1255.641724	32131.765625	2974.041016	5.565463
525.011169	1256.533325	33444.250000	3042.548096	5.548747
525.359985	1251.183472	34770.035156	3105.853760	5.533216
525.708740	1261.363037	36142.183594	3182.979736	5.509093
526.057434	1250.514893	37824.097656	3282.545654	5.556007
526.406067	1247.839966	39926.792969	3396.377686	5.554798
526.754700	1239.889526	42777.562500	3547.955078	5.556560
527.103333	1248.508667	46056.542969	3739.581787	5.559434
527.451782	1246.576782	49562.589844	3959.369141	5.614686
527.800293	1250.366333	52148.699219	4145.645996	5.688359
528.148743	1246.874023	53610.750000	4255.167969	5.744979
528.497131	1254.081299	53559.925781	4263.564453	5.753627
528.845642	1250.143188	52255.390625	4169.348145	5.723343
529.193909	1246.799683	49807.265625	4001.052734	5.671801
529.542175	1246.502441	46423.519531	3793.154053	5.637052
529.890503	1245.462280	42848.816406	3577.304688	5.604938
530.238770	1247.171143	39608.550781	3378.098877	5.554878
530.586914	1243.381714	37406.964844	3243.759521	5.531470
530.934998	1246.576782	36253.558594	3171.760010	5.499427
531.283142	1239.072266	36207.042969	3175.698242	5.538286
531.631226	1237.883423	36926.816406	3214.038330	5.537164
531.979248	1228.966919	38191.453125	3289.009766	5.573335
532.327148	1240.484009	39443.378906	3362.718018	5.555165
532.675110	1241.747192	40369.265625	3422.606201	5.573721
533.023071	1252.372437	40571.289063	3426.172607	5.528637
533.370850	1249.994507	39916.832031	3385.083252	5.521758
533.718689	1256.087402	38631.472656	3310.483398	5.496655
534.066467	1253.784058	36898.730469	3218.793701	5.512730
534.414246	1255.270142	35308.800781	3131.116455	5.508522
534.761963	1256.904785	34026.332031	3052.430420	5.479271
535.109619	1260.174072	33406.949219	3012.158203	5.449953
535.457153	1260.322754	33177.875000	3000.715576	5.452776
535.804749	1251.852173	33210.792969	3005.025146	5.485704
536.152344	1247.394165	33158.035156	2997.148682	5.483295
536.499817	1244.942139	32850.050781	2975.229736	5.474709
536.847229	1246.353882	32157.025391	2942.387695	5.486887
537.194641	1253.858398	31208.107422	2902.041260	5.502334
537.542114	1256.161743	30266.841797	2855.602295	5.513282
537.889404	1254.824341	29612.382813	2807.751221	5.476236
538.236694	1248.211426	29273.341797	2787.466797	5.492411
538.583984	1244.570679	29430.865234	2793.187744	5.494220
538.931213	1250.589111	30163.265625	2837.546143	5.488793
539.278381	1258.093628	31669.382813	2906.573486	5.420618
539.625488	1264.335083	33707.503906	3022.114502	5.418026
539.972595	1264.855103	36317.238281	3155.413818	5.393524
540.319641	1266.489746	38767.667969	3301.641357	5.426900
540.666687	1261.511475	40710.015625	3399.646484	5.420066
541.013611	1256.458984	41757.609375	3455.225342	5.428899
541.360596	1251.257813	41828.199219	3472.166260	5.473326
541.707458	1254.452881	41045.937500	3419.931396	5.442065
542.054260	1251.183472	39525.703125	3350.309570	5.484396
542.401062	1250.812012	37709.300781	3236.477783	5.446374
542.747864	1251.777954	35774.457031	3144.119385	5.481444
543.094666	1254.155640	33857.152344	3041.061768	5.480803
543.441284	1250.960571	32077.748047	2939.192627	5.476510
543.787903	1247.765503	30613.833984	2857.831055	5.482741
544.134460	1248.434326	29362.353516	2783.008545	5.458414
544.481079	1250.440552	28484.468750	2740.209961	5.470250
544.827637	1252.000854	27888.710938	2705.882080	5.458186
545.174072	1252.372437	27566.013672	2682.551025	5.435122
545.520508	1252.075195	27459.240234	2668.359375	5.404187
545.866943	1248.805786	27341.541016	2669.696777	5.445543
546.213318	1245.685181	27249.109375	2671.628662	5.483676
546.559631	1248.657227	26931.837891	2667.764893	5.525436
546.905823	1246.353760	26427.546875	2628.607178	5.489229
547.252136	1247.988403	25667.578125	2582.019531	5.462955
547.598389	1243.010132	24776.318359	2519.084961	5.422420
547.944458	1241.747070	23822.119141	2481.859375	5.491992
548.290588	1245.462280	22876.171875	2424.349365	5.450062
548.636658	1242.861694	22007.724609	2381.105225	5.481585
548.982727	1245.685181	21283.939453	2334.888916	5.435622
549.328735	1241.078369	20729.937500	2318.319092	5.527469
549.674622	1245.982300	20311.242188	2296.845703	5.511928
550.020569	1250.514771	20068.197266	2281.613525	5.479414
550.366455	1249.994751	19921.304688	2266.530273	5.444372
550.712280	1253.189697	19910.974609	2274.109131	5.471815
551.058044	1257.424927	19980.669922	2270.468262	5.410619
551.403748	1267.530151	20109.511719	2276.189453	5.353255
551.749512	1265.969727	20292.666016	2284.437256	5.352835
552.095154	1255.715942	20462.523438	2299.743652	5.435717
552.440735	1247.245483	20563.351563	2303.012939	5.465737
552.786316	1245.313599	20558.001953	2293.279053	5.426306
553.131897	1250.291870	20362.289063	2282.505127	5.400865
553.477417	1256.830566	20059.060547	2265.043945	5.362201
553.822815	1263.071899	19630.482422	2243.347900	5.337040
554.168213	1258.242188	19239.650391	2215.707031	5.324749
554.513672	1253.412598	18890.873047	2197.503174	5.352758
554.859009	1246.130981	18620.039063	2177.441162	5.360395
555.204285	1252.223755	18383.013672	2171.199707	5.364470
555.549500	1256.161865	18188.638672	2164.438232	5.364108
555.894714	1260.099854	18051.326172	2159.534424	5.356575
556.239990	1254.824341	17964.169922	2151.286865	5.365036
556.585022	1263.740601	17873.966797	2148.834473	5.328608
556.930115	1264.037842	17757.830078	2145.416504	5.343699
557.275146	1265.375366	17602.462891	2137.540527	5.338560
557.620178	1248.657227	17508.693359	2130.704834	5.424635
557.965149	1252.372437	17403.111328	2126.841064	5.414419
558.310059	1253.486938	17393.376953	2121.565430	5.378466
558.654968	1259.802612	17378.365234	2108.116943	5.262965
558.999756	1249.697388	17416.185547	2099.349365	5.255637
559.344604	1245.016479	17444.642578	2097.863281	5.264608
559.689331	1242.861694	17478.080078	2104.178955	5.305240
560.033997	1241.821411	17521.623047	2114.061279	5.357804
560.378723	1250.514893	17603.578125	2124.240479	5.342886
560.723389	1254.229980	17633.150391	2124.463623	5.313132
561.067932	1253.189697	17696.457031	2122.605713	5.287368
561.412476	1245.759399	17657.447266	2114.581299	5.293922
561.757019	1241.821289	17609.224609	2109.379883	5.300527
562.101501	1241.375610	17520.804688	2107.670898	5.321411
562.445862	1236.025757	17426.068359	2105.367432	5.369607
562.790222	1239.592285	17377.251953	2105.887451	5.368158
563.134644	1248.731567	17366.255859	2104.030029	5.306637
563.478943	1248.582886	17462.476563	2110.643066	5.316799
563.823181	1244.421997	17609.818359	2124.686279	5.378814
564.167358	1237.957642	17818.089844	2131.670654	5.390265
564.511536	1247.914185	18120.798828	2145.416748	5.319201
564.855774	1259.356812	18493.949219	2150.543701	5.170919
565.199768	1269.387695	18876.162109	2175.657959	5.147282
565.543823	1264.632324	19163.119141	2187.397705	5.155550
565.887817	1254.155640	19367.228516	2205.453369	5.251996
566.231812	1244.644897	19368.564453	2207.013672	5.309937
566.575745	1246.205200	19251.091797	2199.657715	5.295521
566.919617	1242.564453	19028.779297	2187.249268	5.311331
567.263428	1247.171265	18732.236328	2175.435303	5.308897
567.607239	1250.514771	18501.525391	2159.534180	5.269369
567.950989	1253.412598	18272.376953	2139.323975	5.205436
568.294678	1248.954468	18184.402344	2112.797852	5.100801
568.638367	1251.257813	18099.548828	2109.454346	5.093671
568.981995	1253.784180	18108.984375	2109.380127	5.076154
569.325623	1258.985352	18176.822266	2121.491211	5.098205
569.669128	1257.202026	18287.013672	2127.361328	5.109623
570.012573	1251.480713	18489.562500	2135.014404	5.125475
570.356140	1248.582886	18772.359375	2140.438477	5.089403
570.699524	1248.731445	19069.570313	2146.531250	5.037921
571.042908	1255.195801	19384.539063	2162.952148	5.007111
571.386230	1256.384766	19561.306641	2173.428955	5.009823
571.729492	1255.938843	19673.429688	2189.626953	5.069573
572.072815	1251.109253	19613.318359	2182.270996	5.071077
572.416016	1249.623169	19512.042969	2177.738525	5.082105
572.759094	1245.387817	19349.244141	2161.317627	5.059308
573.102234	1245.982300	19138.001953	2155.150391	5.081417
573.445374	1251.034912	18966.662109	2147.051514	5.057775
573.788391	1253.858398	18833.808594	2138.581055	5.032567
574.131409	1255.270142	18778.824219	2137.837891	5.036465
574.474365	1246.130981	18721.091797	2133.974365	5.080660
574.817261	1248.137207	18619.740234	2128.698975	5.068972
575.160156	1249.177368	18445.056641	2110.420166	5.008426
575.502930	1248.359985	18195.029297	2088.129395	4.955365
575.845703	1248.805786	17890.609375	2070.148193	4.935417
576.188477	1251.480591	17490.634766	2059.076904	4.973143
576.531250	1259.431030	17103.220703	2048.526123	4.980469
576.873901	1257.127686	16727.177734	2035.523071	5.031628
577.216431	1248.434204	16437.025391	2017.318848	5.062252
577.559082	1247.988403	16096.125000	2002.161133	5.079242
577.901611	1243.604614	15794.307617	1989.975586	5.129449
578.244080	1246.353760	15466.409180	1969.468140	5.085173
578.586487	1250.886230	15246.992188	1946.136841	4.967458
578.928955	1256.607544	15013.011719	1953.641602	5.066978
579.271301	1257.127686	14839.812500	1953.492798	5.126859
579.613647	1249.697388	14628.644531	1955.573242	5.276020
579.955872	1243.307495	14475.135742	1923.251587	5.138701
580.298157	1250.440552	14383.074219	1915.449829	5.063792
580.640320	1243.530396	14329.577148	1914.632446	5.128379
580.982483	1246.725342	14281.280273	1910.917358	5.095625
581.324524	1238.700684	14227.633789	1900.515015	5.095217
581.666626	1250.217529	14175.992188	1886.249023	4.920645
582.008728	1249.251587	14118.184570	1881.493530	4.912932
582.350647	1253.264038	14064.464844	1872.651367	4.834733
582.692566	1248.954468	13987.859375	1871.313965	4.885502
583.034424	1251.703735	13911.327148	1866.038452	4.852709
583.376343	1249.920410	13814.362305	1866.335571	4.906029
583.718201	1247.468384	13761.085938	1862.917603	4.918236
584.059937	1244.942139	13708.851563	1860.391479	4.937851
584.401611	1247.617065	13651.342773	1855.859009	4.903704
584.743347	1253.932739	13630.612305	1848.800293	4.806358
585.085022	1258.985352	13602.674805	1849.246094	4.781883
585.426514	1263.072021	13572.284180	1853.927124	4.800105
585.768127	1258.390991	13533.276367	1853.481445	4.848032
586.109619	1257.722168	13525.102539	1851.772339	4.842518
586.451172	1260.619995	13563.144531	1850.732056	4.796675
586.792542	1264.260864	13598.735352	1849.097290	4.741478
587.133850	1256.607544	13631.875000	1851.698120	4.808709
587.475220	1247.245483	13684.109375	1849.097534	4.839259
587.816589	1243.307373	13768.442383	1856.230469	4.893545
588.157776	1247.616943	13910.583008	1845.605103	4.722339
588.498962	1248.211426	14028.206055	1854.373047	4.743051
588.840210	1246.725464	14103.696289	1855.041626	4.731411
589.181335	1255.121460	14125.096680	1869.084839	4.770509
589.522400	1254.452759	14130.593750	1870.496704	4.784383
589.863403	1261.362915	14091.213867	1876.663696	4.795853
590.204407	1257.722168	14016.761719	1872.948853	4.821889
590.545410	1260.248413	13949.295898	1861.506226	4.738400
590.886353	1254.155640	13831.452148	1847.611450	4.718469
591.227112	1252.446655	13721.854492	1842.707520	4.733672
591.567932	1248.583008	13612.777344	1833.568237	4.731285
591.908752	1251.852173	13563.514648	1826.286621	4.665775
592.249512	1252.223755	13603.340820	1819.525024	4.593117
592.590149	1254.229980	13621.324219	1819.153687	4.567958
592.930786	1253.189575	13723.862305	1825.692017	4.590790
593.271423	1250.886353	13840.070313	1837.060425	4.656172
593.612000	1250.440552	14035.859375	1843.896118	4.641659
593.952576	1248.805786	14188.699219	1849.023071	4.638503
594.292969	1242.638672	14308.622070	1848.280273	4.635255
594.633484	1238.700806	14441.104492	1862.026245	4.721303
594.973877	1240.558350	14665.647461	1872.131226	4.704422
595.314209	1248.954468	14936.852539	1885.728638	4.652096
595.654480	1249.994751	15278.348633	1900.143555	4.634534
595.994812	1245.833740	15612.637695	1912.329102	4.639134
596.335022	1245.313599	15911.557617	1927.784058	4.653342
596.675171	1248.657227	15991.878906	1928.601440	4.611911
597.015320	1254.750000	15894.541992	1924.886230	4.577498
597.355408	1249.325806	15575.782227	1902.818359	4.561439
597.695496	1252.446655	15162.510742	1882.682251	4.530788
598.035461	1250.366089	14664.532227	1867.598999	4.601351
598.375366	1250.812012	14204.823242	1845.902466	4.593870
598.715271	1243.604614	13797.198242	1819.004883	4.583550
599.055176	1241.672729	13434.155273	1790.769897	4.503572
599.395081	1243.678955	13166.367188	1784.305542	4.534435
599.734802	1252.744019	12937.886719	1781.927734	4.528688
600.074524	1247.765625	12822.495117	1777.989746	4.580877
600.414246	1247.542725	12764.018555	1771.153931	4.546627
600.753906	1241.672852	12813.578125	1769.816406	4.564015
601.093506	1247.022583	12886.618164	1768.553223	4.480659
601.433044	1249.920288	13037.898438	1773.457397	4.441280
601.772583	1250.737671	13253.153320	1785.197266	4.452933
602.112122	1255.641724	13591.082031	1805.704712	4.459208
602.451538	1251.034912	13954.496094	1824.131836	4.511345
602.790894	1255.195801	14350.679688	1830.967651	4.396720
603.130310	1250.143188	14791.590820	1846.719849	4.405560
603.469604	1256.979126	15165.260742	1858.979980	4.328362
603.808838	1257.870728	15540.489258	1883.648438	4.381393
604.148010	1248.657227	15805.750000	1897.691528	4.458543
604.487305	1241.970093	15943.877930	1901.183716	4.483864
604.826416	1233.127930	15860.659180	1887.957886	4.476695
605.165527	1243.901855	15549.182617	1870.719727	4.381723
605.504456	1241.821411	15174.622070	1854.001465	4.393805
605.843445	1244.793457	14659.036133	1840.032593	4.437367
606.182434	1246.874023	14173.690430	1812.986328	4.379364
606.521423	1251.109131	13695.997070	1801.766724	4.424769
606.860229	1253.486816	13355.691406	1790.992798	4.441389
607.199036	1254.378540	13141.105469	1783.116699	4.448139
607.537903	1257.870728	13116.510742	1777.321167	4.380354
607.876648	1262.254517	13235.916992	1778.658569	4.312833
608.215271	1262.774658	13428.210938	1794.633667	4.371886
608.553955	1260.099731	13680.765625	1797.977173	4.330504
608.892578	1252.892456	13882.422852	1803.327148	4.358315
609.231140	1254.155640	14027.165039	1803.995728	4.304703
609.569641	1252.818237	13994.100586	1803.995728	4.325919
609.908081	1254.824341	13873.135742	1794.856445	4.279749
610.246521	1249.697388	13612.109375	1789.952637	4.370144
610.584961	1253.709839	13290.601563	1775.240723	4.332770
610.923340	1252.669556	12913.070313	1756.590698	4.321645
611.261597	1250.960571	12525.507813	1734.745728	4.290950
611.599854	1239.889526	12214.030273	1726.275024	4.432106
611.938110	1247.394043	11922.168945	1717.655884	4.405356
612.276245	1253.709839	11705.575195	1704.132813	4.309498
612.614319	1265.672485	11482.073242	1691.650024	4.169546
612.952393	1256.533325	11338.520508	1692.095825	4.320205
613.290466	1257.350708	11227.958008	1690.609741	4.345363
613.628479	1250.589233	11098.671875	1681.916382	4.379808
613.966370	1254.750122	10988.257813	1670.696655	4.273347
614.304260	1249.325928	10858.004883	1660.665894	4.280921
614.642151	1250.068970	10809.485352	1657.099243	4.257899
614.979980	1245.685059	10774.042969	1653.309937	4.278018
615.317749	1241.375488	10756.061523	1650.263306	4.297439
615.655396	1246.279541	10720.098633	1648.480103	4.245390
615.993164	1253.338257	10683.467773	1648.554565	4.190995
616.330811	1256.161987	10707.468750	1647.439941	4.139935
616.668396	1253.338379	10714.898438	1649.074585	4.182568
617.005859	1247.914185	10750.860352	1642.833008	4.155751
617.343445	1244.347656	10736.668945	1650.783569	4.281734
617.680908	1245.685181	10736.149414	1640.975586	4.165133
618.018311	1254.750122	10712.075195	1642.313110	4.098019
618.355652	1269.090454	10685.176758	1629.681641	3.829523
618.692993	1270.502319	10639.035156	1632.802368	3.867201
619.030273	1264.557983	10625.661133	1633.471069	3.940914
619.367554	1259.654053	10604.781250	1637.929199	4.047833
619.704712	1262.849121	10605.895508	1636.517578	3.999428
620.041870	1256.161743	10560.200195	1632.207886	4.041752
620.379028	1248.657227	10483.222656	1634.808472	4.181585
620.716064	1240.186646	10453.204102	1632.727905	4.260724
621.053040	1248.359985	10453.798828	1635.031372	4.200467
621.389954	1247.914185	10465.909180	1625.817871	4.099630
621.726929	1247.171021	10421.476563	1623.960327	4.107006
622.063843	1238.031982	10366.046875	1627.229492	4.263770
622.400635	1245.016357	10354.529297	1638.746460	4.322186
622.737427	1254.081421	10373.403320	1650.337769	4.345239
623.074219	1261.140137	10390.121094	1644.096313	4.194950
623.410889	1258.539429	10438.268555	1635.922852	4.111052
623.747559	1254.601440	10481.661133	1635.254272	4.125397
624.084167	1254.898560	10567.407227	1641.792969	4.154567
624.420715	1256.087524	10676.112305	1646.622559	4.145796
624.757324	1255.195923	10819.961914	1657.173462	4.202691
625.093750	1255.641724	11003.340820	1656.802124	4.115437
625.430176	1255.344482	11225.133789	1666.758423	4.126606
625.766602	1256.087524	11426.941406	1670.250854	4.072061
626.102905	1252.149414	11590.629883	1693.656128	4.270518
626.439209	1246.725464	11670.729492	1701.829468	4.365923
626.775452	1246.428101	11743.543945	1706.139038	4.379402
627.111694	1247.394043	11729.352539	1697.371460	4.292875
627.447876	1249.177246	11648.883789	1698.560425	4.321114
627.783997	1243.827515	11503.027344	1690.684204	4.355668
628.120056	1242.935913	11356.799805	1684.516968	4.366096
628.456055	1241.821411	11191.996094	1665.644043	4.259449
628.792053	1249.251587	10993.980469	1652.343872	4.136516
629.128052	1252.297974	10804.953125	1635.700195	4.013567
629.463928	1249.474487	10646.540039	1632.579224	4.076855
629.799744	1242.638672	10524.757813	1627.452515	4.145754
630.135559	1239.072266	10407.657227	1639.192383	4.364034
630.471375	1245.610840	10281.936523	1633.768188	4.295522
630.807068	1248.657227	10218.258789	1628.046875	4.229727
631.142700	1257.202026	10168.624023	1612.071899	3.982191
631.478333	1260.694214	10122.036133	1608.876953	3.929233
631.813965	1255.195923	10065.789063	1612.146118	4.051375
632.149475	1247.096802	10018.607422	1613.186523	4.173622
632.484924	1243.010254	10005.604492	1613.112183	4.223657
632.820435	1247.468384	9991.338867	1605.607544	4.095889
633.155884	1244.421997	9992.452148	1603.898560	4.109229
633.491150	1242.564453	10014.372070	1603.304077	4.112489
633.826477	1247.765625	10008.353516	1609.916992	4.133871
634.161804	1249.474609	10014.817383	1615.861206	4.179946
634.497009	1254.229858	9971.053711	1626.709473	4.273111
634.832153	1245.908081	9906.039063	1627.080933	4.401468
635.167297	1250.960571	9802.833008	1625.966431	4.385073
635.502380	1251.629395	9727.935547	1619.502075	4.340012
635.837463	1254.675781	9646.500000	1608.356812	4.214591
636.172424	1252.744019	9571.454102	1598.846069	4.160525
636.507324	1251.480835	9472.185547	1591.935913	4.141434
636.842224	1251.629517	9395.133789	1586.734741	4.115000
637.177124	1254.898804	9276.100586	1584.431274	4.108268
637.511963	1251.406616	9199.866211	1581.087524	4.147733
637.846741	1256.236084	9121.550781	1585.248535	4.183081
638.181396	1252.149536	9072.659180	1582.425171	4.223198
638.516113	1254.006958	8996.127930	1578.784180	4.194939
638.850769	1252.966675	8911.497070	1579.378540	4.262069
639.185303	1256.830444	8816.834961	1577.595337	4.242919
639.519836	1256.904785	8743.275391	1574.251587	4.238994
639.854370	1253.412598	8696.316406	1566.226929	4.202853
640.188843	1252.223755	8664.216797	1560.282715	4.156223
640.523254	1253.041016	8626.100586	1560.654297	4.172125
640.857605	1250.217651	8559.301758	1566.152710	4.322499
641.191895	1247.468384	8511.450195	1569.719360	4.436285
641.526184	1245.982300	8449.036133	1573.285767	4.543954
641.860413	1252.966797	8409.879883	1575.886353	4.511995
642.194580	1253.041016	8371.761719	1579.973022	4.592567
642.528748	1249.548828	8350.659180	1577.743774	4.621741
642.862793	1243.158813	8339.588867	1569.644897	4.600709
643.196838	1236.694458	8284.084961	1564.443848	4.650649
643.530823	1237.214478	8273.237305	1558.350952	4.564176
643.864746	1240.558228	8224.940430	1562.660522	4.611751
644.198669	1246.279419	8230.438477	1556.493286	4.441678
644.532532	1260.694214	8184.519043	1560.877319	4.335510
644.866333	1263.517700	8194.327148	1556.864868	4.232510
645.200073	1263.889282	8197.967773	1572.097046	4.444827
645.533813	1256.013184	8222.487305	1571.130981	4.523347
645.867554	1251.183594	8227.540039	1575.589233	4.650073
646.201172	1251.703613	8227.465820	1565.335327	4.496021
646.534729	1248.954468	8232.889648	1572.468384	4.632258
646.868225	1253.041016	8222.190430	1573.062866	4.591979
647.201782	1255.418823	8253.546875	1571.576782	4.517750
647.535217	1257.870850	8248.866211	1564.518066	4.386317
647.868591	1254.824341	8260.678711	1559.614258	4.350503
648.201965	1254.898804	8242.624023	1571.725464	4.534046
648.535278	1253.115479	8226.425781	1577.372437	4.649971
648.868591	1255.121582	8227.985352	1577.669800	4.625764
649.201782	1253.264038	8213.125977	1574.920532	4.621593
649.534912	1249.028687	8234.674805	1577.446777	4.701327
649.868103	1245.759399	8216.766602	1578.338501	4.770890
650.201172	1247.839844	8218.252930	1576.629517	4.716932
650.534180	1258.316528	8181.621094	1579.527222	4.639557
650.867188	1259.431030	8175.230957	1586.288696	4.726245
651.200134	1254.081177	8176.791504	1588.220703	4.826715
651.533020	1245.536499	8199.231445	1574.177368	4.726133
651.865845	1251.852173	8199.602539	1572.988647	4.622165
652.198608	1253.784058	8173.225098	1579.155762	4.702283
652.531433	1250.514771	8108.507324	1583.167969	4.850591
652.864136	1250.291870	8068.829590	1584.579712	4.902633
653.196777	1358.253784	8126.636719	1632.653687	4.054143
653.529358	1368.804688	8079.529297	1636.591797	3.990435
653.861938	1362.191772	8018.303223	1637.260376	4.132572
654.194519	1256.087524	7830.020996	1578.486938	4.904209
654.526978	1255.047241	7773.476563	1580.418945	4.991566
654.859375	1257.796509	7716.931641	1578.338501	4.962615
655.191833	1255.270142	7706.975098	1583.911133	5.093863
655.524170	1242.044189	7728.152344	1590.003906	5.364692
655.856445	1236.768677	7763.668457	1595.873901	5.501926
656.188660	1239.295044	7790.342285	1597.805664	5.472569
656.520874	1246.873901	7819.841309	1593.050415	5.266670
656.853088	1251.555054	7870.738281	1594.090454	5.174890
657.185181	1254.898560	7953.066406	1599.366089	5.142713
657.517212	1254.006958	8071.356934	1617.793091	5.336181
657.849243	1253.264038	8231.627930	1631.316284	5.417491
658.181274	1250.663452	8452.158203	1648.182983	5.519958
658.513123	1250.589111	8646.310547	1655.836304	5.479481
658.844971	1247.022583	8803.981445	1656.133423	5.413697
659.176819	1248.582886	8901.911133	1662.820679	5.412519
659.508667	1248.508667	8978.071289	1669.507813	5.446610
659.840393	1249.697388	8975.991211	1677.606934	5.538354
660.172058	1254.973022	8880.289063	1670.027954	5.443118
660.503662	1251.480835	8719.499023	1657.248047	5.433399
660.835266	1254.081421	8546.893555	1658.139648	5.540500
661.166931	1245.982300	8381.569336	1651.600952	5.684447
661.498413	1246.725464	8228.133789	1642.387329	5.667365
661.829773	1241.672729	8048.470215	1625.520630	5.639185
662.161194	1242.564453	7841.908691	1611.254517	5.586768
662.492615	1240.855469	7666.108887	1606.499023	5.690726
662.823975	1242.415894	7540.462891	1603.304077	5.730160
663.155212	1236.694580	7466.605957	1598.994507	5.815491
663.486450	1244.421997	7377.368652	1591.118530	5.653017
663.817627	1257.499146	7306.781250	1582.053345	5.365169
664.148743	1261.585815	7260.341797	1586.585938	5.417792
664.479858	1259.802612	7207.513184	1591.192749	5.571726
664.810913	1254.155640	7166.274902	1597.582886	5.808869
665.141907	1251.703613	7130.386719	1602.635376	5.969564
665.472778	1243.976196	7118.646484	1605.830444	6.159567
665.803711	1245.239380	7121.321777	1605.384644	6.129003
666.134583	1247.839966	7103.042969	1598.994629	5.997310
666.465454	1253.264038	7102.076660	1595.279419	5.847604
666.796143	1244.793457	7075.253418	1595.725220	6.018938
667.126831	1249.251587	7052.442871	1606.053345	6.148371
667.457458	1248.434326	7039.736816	1602.189575	6.108388
667.788147	1249.548706	7032.380859	1600.926392	6.076221
668.118774	1239.815063	7053.779785	1597.211304	6.147203
668.449219	1247.319824	7069.087402	1606.647827	6.172146
668.779663	1247.171265	7078.300293	1616.381470	6.331710
669.110107	1247.468384	7066.040527	1618.610474	6.378577
669.440552	1242.713013	7053.482910	1621.582520	6.520126
669.770874	1240.409668	7046.201172	1624.257446	6.611464
670.101135	1252.372437	7033.123535	1628.418457	6.505141
670.431396	1256.236206	7000.431152	1628.864258	6.487037
670.761597	1259.356812	6925.533691	1626.858032	6.485877
671.091797	1253.486938	6852.122559	1627.229492	6.675601
671.421875	1248.508667	6774.476074	1634.957031	6.993316
671.751892	1250.291870	6751.219238	1637.631958	7.041360
672.081909	1250.366211	6719.269531	1628.195679	6.908688
672.411865	1254.378540	6689.845215	1616.084106	6.654545
672.741821	1247.394165	6645.264160	1603.378418	6.594902
673.071716	1241.970093	6632.929688	1614.375366	6.907959
673.401550	1241.152710	6604.025879	1619.724976	7.059132
673.731262	1247.839966	6601.722656	1623.960327	7.025188
674.060974	1248.508667	6563.531250	1618.461792	6.960518
674.390625	1242.192993	6553.276855	1616.604370	7.049623
674.720276	1245.462280	6524.818848	1627.006714	7.227101
675.049927	1251.480835	6516.423340	1630.722046	7.203141
675.379395	1257.722168	6500.670410	1628.641479	7.074632
675.708923	1258.316528	6500.225098	1614.672485	6.798210
676.038330	1251.034912	6479.865723	1618.833374	7.034048
676.367737	1255.270142	6456.609375	1625.594849	7.119795
676.697083	1258.093750	6431.866699	1630.944702	7.206558
677.026428	1254.155640	6448.881348	1629.607300	7.227555
677.355652	1244.570557	6489.525391	1632.208008	7.390673
677.684875	1238.626343	6545.029785	1642.684570	7.614541
678.013977	1249.771606	6602.391113	1649.446167	7.466897
678.343079	1260.099731	6681.151855	1654.052734	7.267095
678.672180	1254.601440	6737.324219	1663.266235	7.453683
679.001221	1248.285645	6817.645996	1676.640991	7.691285
679.330139	1248.880005	6906.066406	1686.969116	7.743940
679.659058	1254.898560	6990.027832	1700.566406	7.770842
679.987976	1260.768555	7064.330566	1705.618774	7.665124
680.316772	1249.623169	7070.646484	1714.386719	7.984224
680.645630	1247.394043	7070.200684	1708.888306	7.925632
680.974304	1246.502441	7022.795410	1712.157593	8.061488
681.302979	1239.592285	7005.780762	1702.498169	8.027935
681.631653	1237.734741	6963.205078	1702.201172	8.112285
681.960266	1233.722290	6920.257813	1697.742798	8.159986
682.288757	1241.004028	6838.450684	1704.875977	8.287206
682.617249	1239.146484	6754.860840	1701.755249	8.387105
682.945679	1238.329102	6658.044434	1692.913086	8.387599
683.274109	1240.558228	6579.877441	1692.021484	8.455446
683.602478	1251.926392	6476.299316	1686.523071	8.318638
683.930725	1259.505371	6361.947266	1686.820313	8.374715
684.259033	1259.282593	6254.876953	1675.229126	8.326267
684.587280	1259.579712	6184.735840	1673.668823	8.407634
684.915344	1258.539551	6151.299316	1669.805054	8.405594
685.243469	1263.443481	6101.144531	1671.662720	8.438290
685.571533	1252.223877	6057.603027	1673.148804	8.759454
685.899536	1255.790405	6023.646973	1677.309692	8.840856
686.227539	1259.059570	6022.606934	1677.755493	8.789582
686.555420	1259.802612	6042.892090	1674.337524	8.666677
686.883301	1253.041138	6054.408203	1673.520142	8.757484
687.211121	1242.341431	6068.823730	1676.417969	8.993642
687.538940	1243.604736	6075.732910	1685.854370	9.152275
687.866638	1239.666626	6102.036621	1690.684082	9.275671
688.194336	1244.793579	6084.798340	1692.690308	9.254055
688.521973	1248.211426	6046.012207	1697.891479	9.372629
688.849609	1256.607544	5973.938965	1694.547852	9.283645
689.177063	1253.784058	5929.803223	1698.857422	9.518211
689.504578	1257.573608	5876.453125	1691.724243	9.399480
689.832031	1250.291992	5840.490723	1690.981323	9.600659
690.159485	1249.548950	5773.320801	1682.436523	9.569173
690.486816	1244.570557	5736.467285	1675.154785	9.585800
690.814087	1251.109253	5676.951172	1672.554199	9.522368
691.141296	1248.359985	5647.304688	1666.387085	9.502894
691.468506	1243.084473	5596.183594	1666.164185	9.719047
691.795715	1247.914185	5542.166016	1660.814453	9.615185
692.122803	1257.499146	5478.265625	1658.733887	9.506206
692.449829	1257.647827	5448.172852	1663.786499	9.691833
692.776855	1249.177246	5411.095703	1666.609985	10.029816
693.103821	1245.462158	5376.024902	1672.108398	10.329011
693.430664	1248.880249	5341.028320	1666.238403	10.198999
693.757568	1245.239258	5309.672363	1663.043457	10.279520
694.084351	1247.245483	5304.768555	1663.489258	10.258569
694.411133	1249.400269	5273.041016	1660.517212	10.217536
694.737854	1253.338257	5282.998047	1659.625610	10.082423
695.064575	1242.713013	5286.416016	1657.470825	10.256881
695.391174	1242.044312	5310.861816	1669.953613	10.516798
695.717773	1241.895630	5331.963379	1676.938110	10.636559
696.044250	1253.784180	5366.142578	1685.185669	10.490367
696.370789	1260.397095	5443.269043	1687.117554	10.201614
696.697205	1261.214355	5550.041504	1701.086548	10.256235
697.023621	1262.477539	5674.201660	1716.690063	10.295579
697.349915	1257.202026	5821.394531	1740.318359	10.584925
697.676208	1255.121460	6011.460938	1763.797974	10.694706
698.002380	1249.920410	6236.821777	1792.107422	10.872223
698.328674	1250.217529	6438.776855	1820.119507	10.983819
698.654724	1244.942017	6588.720215	1844.936646	11.227910
698.980896	1249.548828	6678.402832	1859.945679	11.243567
699.306946	1252.075195	6696.755859	1865.072632	11.258648
699.632935	1260.768555	6621.338379	1863.809448	11.249567
699.958862	1259.208374	6493.314941	1860.391602	11.485881
700.284729	1258.390991	6302.653809	1840.032593	11.530756
700.610596	1258.762573	6124.327637	1812.540527	11.381576
700.936340	1266.192749	5920.292480	1787.574829	11.202641
701.262146	1268.347534	5733.049316	1770.633789	11.250164
701.587830	1264.335083	5544.692871	1761.420288	11.613169
701.913513	1251.480713	5376.545410	1751.240845	12.115208
702.239075	1246.502319	5253.425293	1733.333618	12.149755
702.564697	1245.164917	5143.011230	1718.176147	12.135195
702.890137	1244.867676	5059.197754	1702.646851	12.001561
703.215698	1239.443726	4976.053223	1696.851440	12.241251
703.541016	1243.010376	4911.187012	1691.129883	12.216410
703.866455	1252.075317	4861.626953	1687.117554	12.052528
704.191711	1256.236206	4820.314941	1681.619141	11.935285
704.517029	1255.195923	4789.107422	1680.727539	12.041377
704.842163	1245.239380	4749.281738	1679.538696	12.394237
705.167419	1248.285645	4721.194824	1682.807983	12.511768
705.492493	1245.759399	4717.702148	1686.523071	12.695015
705.817566	1249.474609	4700.984375	1684.517090	12.604411
706.142578	1250.663452	4691.102051	1689.198120	12.746476
706.467590	1254.527222	4663.907227	1686.151733	12.659912
706.792480	1251.926636	4670.892090	1683.922729	12.635287
707.117371	1247.171143	4687.387207	1686.300171	12.764577
707.442200	1240.706787	4699.646973	1688.380737	12.942518
707.766907	1238.254883	4705.368652	1694.845093	13.169173
708.091675	1238.180542	4710.866699	1705.098633	13.445445
708.416321	1243.456055	4715.919434	1707.104858	13.352159
708.741028	1243.158813	4724.687012	1709.631226	13.398496
709.065552	1244.199097	4725.430176	1703.910034	13.205414
709.390137	1242.861572	4739.176270	1710.597168	13.377960
709.714600	1244.496216	4768.376953	1724.268921	13.614896
710.039063	1244.942017	4818.531250	1734.597046	13.702051
710.363403	1245.908081	4870.617676	1739.055176	13.605148
710.687744	1248.211426	4926.196289	1746.336914	13.543435
711.012085	1247.319824	4965.874512	1744.182007	13.361702
711.336304	1243.530396	4983.854980	1750.795044	13.562049
711.660461	1246.651001	4977.836426	1752.206665	13.549464
711.984619	1247.616943	4931.917480	1750.869507	13.659379
712.308716	1255.344360	4905.020020	1757.853882	13.768607
712.632751	1250.068970	4864.153809	1749.383301	13.815788
712.956726	1244.644897	4829.676270	1758.597046	14.336058
713.280701	1241.375610	4792.005371	1754.658691	14.456114
713.604553	1244.124756	4747.126465	1758.448242	14.682364
713.928467	1249.846191	4734.271973	1752.652466	14.430104
714.252258	1252.818237	4697.640625	1757.630859	14.654243
714.575989	1255.716064	4697.937988	1751.835327	14.412763
714.899719	1260.545532	4692.365723	1754.658813	14.397994
715.223267	1256.087524	4702.916504	1750.423462	14.341760
715.546936	1255.864624	4693.554199	1763.872437	14.777595
715.870422	1246.874023	4671.560547	1762.980591	15.070184
716.193970	1256.533325	4649.642090	1756.887817	14.746196
716.517395	1256.384644	4628.985352	1745.222290	14.494383
716.840820	1259.133789	4589.530273	1744.330688	14.568743
717.164124	1256.756104	4550.075684	1745.445313	14.838803
717.487488	1251.629272	4492.491211	1740.169556	15.074394
717.810730	1249.251587	4444.417480	1739.129395	15.331842
718.133972	1244.644897	4370.263184	1720.702271	15.230824
718.457092	1250.812012	4305.768555	1715.203979	15.201262
718.780212	1248.657349	4255.985840	1702.423828	15.088690
719.103210	1245.536621	4217.348145	1700.789429	15.319034
719.426208	1237.437378	4176.407227	1693.804810	15.528143
719.749207	1247.839844	4135.095215	1692.095825	15.386792
720.072083	1251.109131	4086.129883	1690.312500	15.492069
720.394958	1260.099731	4050.241455	1689.941040	15.405717
720.717773	1254.750122	4009.300781	1678.126953	15.370087
721.040527	1253.041138	3985.746826	1673.743164	15.395073
721.363281	1244.421997	3951.641602	1673.000000	15.830928
721.685913	1250.960571	3929.871094	1678.349976	15.953851
722.008545	1247.839966	3911.592529	1679.315796	16.198046
722.331055	1253.784058	3906.762695	1675.823608	15.908140
722.653503	1247.394043	3900.075439	1671.068359	15.971549
722.976013	1254.229858	3896.806396	1671.068359	15.773942
723.298401	1254.973022	3881.722900	1674.634766	15.976463
723.620789	1246.056519	3879.047852	1676.120728	16.333673
723.943115	1237.883179	3860.397705	1685.260132	17.059084
724.265381	1235.356934	3858.540283	1682.213501	17.034897
724.587585	1241.004028	3836.769775	1681.321899	16.962929
724.909790	1239.295044	3845.760498	1672.776978	16.631025
725.231873	1235.431274	3843.457031	1669.879272	16.658117
725.553894	1236.397339	3871.171875	1672.925781	16.567963
725.875916	1282.836548	3923.332275	1709.333984	16.152174
726.197937	1284.322510	3935.072266	1717.284546	16.333569
726.519775	1287.740479	3935.146484	1715.798462	16.168959
726.841675	1247.542603	3944.879883	1691.055664	16.442625
727.163513	1252.669556	3982.105469	1696.628296	16.265585
727.485291	1257.870728	4014.798828	1708.739624	16.354031
727.806946	1260.248413	4018.068115	1719.885132	16.666670
728.128662	1260.248413	4033.002930	1729.544556	16.925268
728.450256	1256.681885	4044.445557	1738.683716	17.289909
728.771790	1256.458984	4036.346680	1737.271851	17.296125
729.093323	1254.898560	4020.074463	1742.770142	17.643419
729.414795	1253.115356	4016.656982	1743.810547	17.756027
729.736145	1245.833740	4013.090088	1738.535156	17.804689
730.057495	1245.908081	4029.436768	1724.491821	17.193419
730.378845	1239.295044	4034.786377	1724.046021	17.340458
730.700134	1237.957642	4043.405273	1728.281250	17.477552
731.021301	1240.112427	4068.222656	1737.420532	17.584467
731.342468	1250.217651	4092.965576	1747.525757	17.493921
731.663574	1253.932739	4111.615723	1763.797974	17.841909
731.984680	1254.675781	4111.318359	1768.924805	18.001867
732.305664	1245.387817	4113.324219	1764.392456	18.096796
732.626648	1247.319702	4123.429688	1752.058105	17.549343
732.947571	1244.570557	4131.082520	1750.720703	17.535009
733.268433	1253.412598	4112.061035	1755.698853	17.570761
733.589233	1259.876953	4097.646484	1761.271484	17.668613
733.909973	1263.071899	4059.900391	1766.695679	18.006958
734.230713	1260.694214	4014.130127	1754.510132	17.934534
734.551331	1248.285767	3935.294922	1744.404907	18.463619
734.871948	1240.335327	3861.066406	1732.293579	18.771795
735.192505	1238.477783	3819.234131	1730.807617	19.076960
735.513062	1243.010254	3785.797852	1725.012085	18.955647
735.833435	1247.245483	3759.643311	1716.392944	18.673294
736.153931	1245.239258	3719.817139	1700.863647	18.412207
736.474304	1249.994629	3700.349854	1694.027710	18.121172
736.794617	1253.561279	3689.501709	1701.755249	18.399218
737.114807	1256.756226	3684.300537	1708.145386	18.594475
737.434998	1262.626221	3673.303711	1722.782837	19.088270
737.755188	1260.842896	3691.062256	1722.559937	18.998987
738.075256	1259.505371	3721.229248	1732.219238	19.202555
738.395325	1252.298096	3743.891357	1728.801392	19.124441
738.715271	1253.041138	3744.039795	1726.275024	18.997759
739.035278	1250.812012	3743.816650	1729.841675	19.214952
739.355164	1256.310425	3735.717773	1739.723999	19.497143
739.675049	1258.985229	3730.145264	1751.835327	19.944078
739.994873	1259.431030	3712.758545	1748.120117	19.919439
740.314636	1251.926514	3699.681396	1728.875610	19.485167
740.634277	1246.502441	3653.316406	1711.340210	19.313406
740.953979	1243.753296	3610.517822	1703.612793	19.429878
741.273499	1248.508667	3576.487061	1709.705566	19.811047
741.593140	1245.982300	3548.772217	1714.312500	20.337511
741.912598	1253.412720	3508.054443	1703.612793	19.967701
742.232117	1252.149536	3463.324219	1690.981079	19.846081
742.551453	1252.892456	3441.479248	1677.978149	19.422838
742.870850	1253.189575	3427.287109	1673.817383	19.347237
743.190063	1249.697510	3412.352295	1675.377563	19.683218
743.509338	1248.582886	3403.881836	1670.845215	19.591824
743.828552	1240.781128	3398.309326	1664.975220	19.661114
744.147705	1236.025757	3382.111328	1660.071289	19.759024
744.466797	1237.957642	3361.083984	1663.266479	20.032196
744.785828	1245.833862	3336.117920	1672.851563	20.428692
745.104858	1253.338257	3329.281982	1666.684204	19.911230
745.423706	1256.681885	3300.080811	1662.077515	19.839279
745.742615	1251.480713	3280.910889	1648.554321	19.565769
746.061401	1246.948364	3263.821045	1651.972290	20.081779
746.380249	1246.725464	3276.155518	1649.074585	19.825720
746.698975	1253.858521	3271.400146	1656.876343	19.975689
747.017639	1257.945190	3266.050049	1661.334473	20.088058
747.336304	1248.137207	3240.267578	1658.065063	20.577360
747.654907	1241.524292	3227.338623	1659.031128	21.024466
747.973389	1240.781128	3219.462891	1662.151855	21.295528
748.291931	1251.035034	3220.800049	1676.417969	21.595619
748.610352	1257.202026	3235.586182	1677.606934	21.249912
748.928711	1255.344482	3240.044678	1673.668945	21.077463
749.247070	1249.548950	3252.081299	1666.312866	20.811844
749.565308	1247.914185	3234.546143	1673.594360	21.427229
749.883545	1254.750000	3231.871094	1670.919556	21.049271
750.201782	1257.573486	3223.103516	1675.526367	21.264132
750.519836	1254.378540	3217.828125	1673.223022	21.332071
750.837952	1243.455933	3216.044922	1678.721313	22.065691
751.155884	1244.050415	3214.558594	1684.591309	22.356714
751.473877	1242.564453	3222.285889	1682.436523	22.218887
751.791809	1255.716064	3218.496338	1680.950562	21.664906
752.109619	1256.236206	3210.992188	1675.303589	21.438347
752.427490	1267.530151	3194.645264	1676.566772	21.225334
752.745300	1261.288696	3198.434570	1674.857788	21.349403
753.062988	1263.072021	3206.682373	1674.188843	21.152224
753.380615	1246.725464	3206.459717	1674.188843	21.812313
753.698303	1245.239258	3201.852783	1675.229004	21.976223
754.015808	1242.192871	3185.506104	1682.733765	22.669577
754.333374	1254.229858	3191.822021	1685.854492	22.276340
754.650757	1249.548828	3184.391602	1691.352905	22.834108
754.968262	1253.561157	3173.766357	1683.476685	22.389040
755.285583	1250.886230	3172.651611	1675.897949	22.115692
755.602905	1251.183472	3161.209229	1667.353027	21.788689
755.920105	1243.678833	3166.707764	1668.913452	22.112753
756.237305	1239.072144	3165.370361	1666.535767	22.190937
756.554443	1246.799683	3166.410889	1670.176636	22.055349
756.871582	1247.765503	3167.599365	1671.885620	22.091501
757.188599	1248.062866	3173.692139	1677.903931	22.322109
757.505615	1246.428101	3197.022705	1682.436523	22.352591
757.822510	1246.874023	3225.927002	1698.040039	22.797066
758.139465	1251.257690	3251.932861	1710.894409	22.974081
758.456238	1246.205200	3269.096680	1717.878906	23.316807
758.773010	1255.493042	3286.632080	1712.454712	22.497803
759.089783	1258.390869	3300.006592	1710.671509	22.153074
759.406433	1263.963501	3304.985107	1724.937622	22.585461
759.723145	1255.938843	3312.117920	1732.888062	23.195898
760.039673	1252.669556	3327.349854	1738.683594	23.425974
760.356201	1254.675659	3346.148438	1732.219360	22.832891
760.672668	1257.499268	3353.430420	1740.095337	23.025377
760.989136	1251.480835	3360.786377	1735.562988	22.949835
761.305481	1241.004150	3362.495361	1735.637329	23.315353
761.621826	1243.976196	3357.962891	1734.225586	23.190750
761.938049	1253.932739	3355.065186	1747.897339	23.509447
762.254333	1251.034912	3379.956299	1753.767212	23.614414
762.570496	1238.254883	3458.048828	1765.581177	23.755642
762.886597	1235.059937	3593.948486	1798.720215	23.895163
763.202637	1248.805908	3799.098389	1851.178101	23.619730
763.518677	1249.251587	4035.455078	1921.765625	24.137289
763.834656	1245.313599	4258.883301	1972.885742	24.143198
764.150574	1240.038086	4396.194824	2005.876343	24.264900
764.466370	1248.508667	4411.724121	1998.594604	23.712769
764.782288	1249.697388	4314.610352	1979.052856	23.796938
765.097961	1254.006958	4166.896484	1946.508301	23.773689
765.413696	1253.561157	4006.105469	1914.335327	24.005939
765.729309	1252.743896	3839.816162	1874.063354	24.016315
766.044861	1249.474487	3683.854736	1844.639282	24.448307
766.360474	1247.245483	3557.762939	1805.779175	24.173531
766.675903	1244.421997	3464.290039	1785.568726	24.377426
766.991394	1248.359985	3394.222656	1769.816406	24.300549
767.306763	1249.474609	3320.811279	1762.311890	24.758760
767.622131	1252.298096	3280.242188	1744.999390	24.295605
767.937378	1245.982422	3238.335693	1733.631226	24.476021
768.252625	1243.753296	3214.930420	1726.943848	24.512793
768.567810	1247.022583	3163.809814	1726.200806	24.999031
768.882996	1250.068970	3116.999023	1705.544556	24.397036
769.197998	1251.852173	3071.228516	1695.439453	24.381283
769.513062	1252.000854	3040.095703	1687.934937	24.379808
769.828064	1254.155640	3004.579102	1686.597290	24.704973
770.142944	1255.195801	2986.300537	1673.965942	24.190918
770.457825	1248.359985	2976.938232	1666.015625	24.161800
770.772705	1243.158813	2975.898438	1669.062012	24.579758
771.087402	1246.056763	2946.548828	1676.566772	25.316790
771.402100	1252.075073	2921.062744	1681.842163	25.750166
771.716736	1248.062866	2896.840576	1668.987793	25.529514
772.031372	1247.765503	2893.050781	1659.402710	25.019199
772.345947	1245.982300	2887.998047	1657.842285	25.082584
772.660461	1247.542603	2868.307861	1656.058960	25.205153
772.974854	1250.291870	2852.778564	1652.195313	25.079987
773.289246	1251.777954	2834.574219	1645.879517	24.899071
773.603638	1260.471313	2829.298828	1647.811523	24.689789
773.917908	1252.743774	2817.559326	1639.935425	24.743597
774.232178	1252.297974	2800.841064	1628.418457	24.288668
774.546265	1246.428101	2783.156982	1622.399902	24.465721
774.860474	1246.279663	2764.432617	1622.548462	24.784643
775.174561	1249.177368	2758.414307	1623.068726	24.773537
775.488586	1246.502441	2758.265625	1620.765259	24.756710
775.802551	1254.675659	2753.807373	1617.867310	24.226801
776.116516	1254.006958	2735.826172	1618.759155	24.615162
776.430359	1248.434204	2724.457764	1621.136719	25.250444
776.744202	1241.969971	2729.287354	1629.830200	26.077839
777.057922	1239.295044	2723.937744	1621.656860	25.754467
777.371704	1247.245483	2730.253174	1617.347290	24.956161
777.685303	1249.400269	2714.278320	1608.951172	24.544767
777.998962	1249.846069	2726.166992	1614.523926	24.701801
778.312500	1251.480835	2697.931885	1614.895386	25.124567
778.626038	1251.109253	2694.662354	1622.771484	25.746349
778.939453	1246.874023	2677.572998	1622.845703	26.278881
779.252869	1247.542725	2693.919189	1625.149048	26.107058
779.566223	1244.793457	2693.845215	1619.056274	25.828119
779.879578	1253.858398	2693.844971	1621.805542	25.552124
780.192749	1254.229858	2687.381104	1619.799316	25.508087
780.505920	1261.734375	2680.545166	1618.313354	25.132244
780.819031	1265.375366	2680.916504	1615.266724	24.717852
781.132141	1259.431030	2672.148682	1619.576294	25.493082
781.445190	1252.595337	2675.195313	1624.480347	26.141222
781.758118	1247.616943	2656.248047	1622.548462	26.616728
782.071045	1255.641724	2644.582764	1612.146118	25.667353
782.383911	1257.722168	2628.458740	1603.304077	25.211403
782.696838	1246.799683	2617.610596	1599.663208	25.741226
783.009583	1250.143311	2607.208008	1591.564087	25.158770
783.322266	1252.520874	2584.545898	1587.551880	25.152006
783.634888	1264.186523	2577.784180	1583.613892	24.316986
783.947510	1254.601440	2577.189697	1595.428101	25.769672
784.260132	1254.601440	2574.960693	1593.347656	25.655609
784.572571	1252.297974	2559.059814	1597.062622	26.383127
784.885010	1251.257813	2549.400635	1587.477661	25.900066
785.197449	1248.508545	2543.456299	1589.260864	26.313982
785.509766	1253.486938	2531.642334	1582.276367	25.723745
785.822083	1258.167969	2517.079102	1583.613770	25.851372
786.134277	1256.904785	2512.323486	1585.694336	26.189632
786.446533	1251.406372	2522.948975	1582.202148	26.015312
786.758606	1254.081421	2530.007813	1582.350952	25.727936
787.070740	1251.852173	2538.106689	1570.313843	24.758839
787.382690	1259.356812	2545.685547	1577.818359	24.757401
787.694641	1254.452759	2565.004150	1584.876953	25.212608
788.006653	1259.654053	2594.502197	1605.235962	25.889231
788.318481	1259.208130	2641.759033	1623.811890	26.371815
788.630310	1259.505493	2677.275635	1632.133667	26.282694
788.942017	1258.390869	2703.504639	1636.517456	26.165871
789.253784	1249.548828	2712.197998	1631.167603	26.090931
789.565430	1254.675659	2702.984375	1634.882813	26.251802
789.877014	1257.796387	2677.721436	1632.356445	26.378860
790.188538	1255.047241	2636.854980	1629.755859	27.117275
790.500061	1253.784058	2601.115234	1608.579590	26.333208
790.811462	1250.291870	2567.158936	1605.607422	26.981884
791.122925	1252.000854	2541.153076	1597.582886	26.806923
791.434204	1249.400146	2520.051025	1603.304077	27.852177
791.745483	1240.260986	2497.834717	1594.239258	28.147715
792.056702	1240.558228	2486.912109	1583.242310	27.494926
792.367920	1243.158813	2467.593506	1573.211548	26.955519
792.678955	1252.149414	2465.364258	1564.518066	25.747183
792.990112	1253.412720	2447.680420	1565.261108	26.112101
793.301086	1256.384766	2444.485107	1564.666626	25.947460
793.612122	1258.093750	2443.519287	1578.709961	27.046509
793.922974	1257.796509	2437.129150	1582.424927	27.526451
794.233826	1251.034790	2429.996094	1575.812134	27.547752
794.544556	1250.960571	2420.634033	1565.781250	26.915262
794.855286	1245.685059	2431.110840	1552.555298	25.886921
795.166016	1252.446655	2436.237549	1565.186890	26.418537
795.476624	1250.737671	2450.801025	1567.787476	26.419422
795.787292	1248.731567	2472.125732	1589.335083	27.840864
796.097778	1240.335449	2504.001709	1598.771606	28.364780
796.408264	1236.843140	2522.651855	1608.802612	28.928057
796.718689	1240.409668	2534.317383	1607.762329	28.390947
797.029053	1243.976196	2542.936523	1611.105957	28.263355
797.339355	1243.455933	2536.174561	1608.579590	28.244635
797.649658	1242.118530	2522.205811	1601.743774	28.093807
797.959839	1241.375610	2490.850098	1586.363159	27.610611
798.270020	1242.713013	2476.509766	1584.877075	27.732613
798.580078	1245.387817	2456.447998	1588.146362	28.302355
798.890137	1245.536499	2457.859863	1589.855347	28.401567
799.200195	1242.935791	2438.021240	1579.229980	28.139761
799.510071	1240.260864	2433.860107	1573.211426	27.894669
799.820007	1243.753174	2414.912842	1576.555176	28.416451
800.129883	1245.462158	2397.897461	1575.217773	28.613808
800.439575	1250.514771	2378.950439	1574.548950	28.715343
800.749329	1255.270142	2359.111572	1566.970093	28.237747
801.058960	1260.917114	2365.872803	1568.901978	27.873051
801.368591	1261.363037	2357.031006	1569.719238	28.143215
801.678162	1250.514771	2361.043213	1563.477905	28.181461
801.987671	1244.421997	2343.730713	1557.756470	28.502865
802.297119	1247.394043	2330.058838	1551.217773	28.062586
802.606506	1254.824341	2309.774414	1543.564575	27.370037
802.915894	1259.059692	2309.922852	1541.632813	26.889622
803.225159	1259.802612	2308.511230	1536.728882	26.406406
803.534424	1255.567383	2315.049805	1544.679199	27.288023
803.843628	1253.412598	2312.597900	1544.902222	27.520172
804.152771	1246.948242	2319.136475	1550.623413	28.322935
804.461792	1252.520874	2314.529541	1548.022827	27.824816
804.770874	1253.041138	2306.356445	1554.338501	28.604670
805.079773	1256.236084	2305.910889	1554.338501	28.399502
805.388733	1256.384644	2319.879639	1562.734741	28.805975
805.697571	1255.195801	2337.786377	1560.728516	28.222370
806.006470	1250.663452	2359.408447	1565.929810	28.434525
806.315125	1241.746948	2371.742920	1568.233276	28.892698
806.623901	1240.855469	2378.281494	1570.610962	28.991379
806.932495	1244.719238	2371.594238	1570.313843	28.893587
807.241150	1249.177368	2349.229004	1564.221069	28.638992
807.549622	1256.161743	2335.706055	1564.666626	28.577324
807.858154	1256.013184	2325.972412	1563.254883	28.715271
808.166565	1252.818237	2317.576172	1553.149780	28.206556
808.474915	1245.982300	2304.201660	1553.744141	29.082991
808.783264	1247.319824	2283.842773	1560.505859	30.215061
809.091492	1254.750000	2273.366211	1565.186890	30.476336
809.399719	1258.167969	2254.790283	1559.836914	30.269135
809.707825	1261.288574	2233.688232	1543.416138	29.013540
810.015930	1254.601440	2214.444092	1543.193359	30.066586
810.323975	1258.242188	2212.437744	1530.264648	28.508041
810.632080	1249.251587	2212.883789	1525.657837	28.683792
810.939880	1251.183472	2209.540039	1521.199585	28.174911
811.247864	1246.576660	2196.165527	1526.400757	29.467920
811.555664	1249.028687	2180.933350	1525.211914	29.636425
811.863464	1252.520996	2172.462891	1522.388550	29.335283
812.171143	1250.366211	2157.602539	1517.112915	29.402119
812.478882	1253.115479	2158.865479	1516.890015	29.122223
812.786438	1245.759399	2165.329590	1510.648438	28.805744
813.094055	1245.833862	2180.115967	1514.363647	28.741831
813.401489	1246.576782	2180.413330	1514.958130	28.739649
813.708984	1248.583008	2172.685791	1520.753784	29.452436
814.016357	1253.709839	2163.397705	1517.038574	28.947153
814.323730	1251.629395	2160.277100	1511.614380	28.612297
814.630981	1254.453003	2156.859375	1512.357544	28.579645
814.938232	1252.669556	2148.314697	1514.660767	29.251675
815.245361	1251.406372	2137.540771	1517.632935	30.043587
815.552490	1250.514771	2132.413818	1518.153320	30.347980
815.859619	1249.697510	2134.048584	1511.094360	29.558041
816.166565	1257.424927	2140.587158	1512.654785	28.899544
816.473572	1259.133911	2157.379639	1509.311035	27.851748
816.780457	1256.904785	2166.370361	1515.552612	28.439541
817.087341	1255.493042	2186.431885	1520.307983	28.446009
817.394043	1255.493042	2191.113037	1524.617554	28.764297
817.700806	1246.353882	2212.289063	1528.481079	29.207674
818.007507	1249.920288	2214.518311	1537.471802	29.810503
818.314209	1244.570435	2212.511963	1543.044556	30.835966
818.620667	1253.858398	2217.118896	1548.765991	30.615561
818.927246	1239.517944	2239.929688	1544.901978	30.525835
819.233704	1241.226929	2290.009766	1550.474976	29.486376
819.540161	1240.037964	2332.956787	1560.728516	29.342577
819.846497	1250.737671	2397.748779	1583.613892	29.021185
820.152832	1253.858398	2468.113525	1611.625977	29.463955
820.458984	1259.876953	2563.072510	1644.021973	29.477158
820.765259	1259.653931	2655.430420	1672.554199	29.582119
821.071350	1264.260864	2761.757813	1709.631348	29.740993
821.377502	1265.969849	2929.236084	1765.729858	30.046904
821.683472	1263.443481	3259.065674	1880.156250	30.903282
821.989441	1262.254639	3916.422119	2091.770264	31.253326
822.295349	1255.270142	5003.693848	2428.881592	31.309465
822.601196	1257.796387	6422.949707	2858.351563	30.987564
822.907043	1245.759399	7770.726563	3270.582764	31.031931
823.212769	1251.034912	8622.682617	3528.115967	30.889717
823.518494	1249.994629	8667.188477	3555.682373	31.085714
823.824097	1252.000977	8045.498535	3357.888672	30.998579
824.129700	1248.880127	6992.332031	3035.786377	31.112059
824.435242	1249.623047	5905.282715	2705.139160	31.263371
824.740723	1257.053345	4974.492676	2420.559814	31.298599
825.046082	1259.431152	4302.275879	2220.016602	31.568665
825.351501	1255.344604	3844.050781	2062.792236	31.191168
825.656799	1252.743774	3543.571045	1983.808472	31.912695
825.962036	1245.833740	3344.216797	1918.199097	32.042068
826.267212	1245.462280	3259.734619	1894.719360	32.232834
826.572449	1243.901978	3253.567627	1887.140259	32.007229
826.877502	1254.229980	3404.178955	1938.706543	31.836874
827.182495	1258.688110	3678.579102	2029.950195	31.871769
827.487488	1256.830566	4028.322021	2141.776123	31.930302
827.792419	1248.137207	4316.988281	2231.756592	32.051716
828.097290	1239.889526	4435.277832	2257.316650	31.840487
828.402100	1242.564453	4323.824219	2215.409912	31.572977
828.706848	1245.833618	4012.570068	2115.398438	31.429262
829.011597	1252.149414	3619.954346	1994.433594	31.349043
829.316223	1249.697388	3244.131104	1879.487305	31.577381
829.620789	1242.713013	2938.152344	1784.305542	31.944082
829.925354	1239.220825	2691.095947	1709.557007	32.395084
830.229797	1246.056519	2515.518555	1645.879517	31.495466
830.534302	1252.966675	2402.801514	1600.332031	30.210022
830.838562	1251.257690	2320.994141	1570.313843	29.825678
831.142944	1246.725220	2267.347412	1554.487183	30.154348
831.447144	1244.421997	2216.078369	1554.487305	31.911005
831.751404	1243.307495	2193.490723	1550.697754	32.350632
832.055542	1247.394043	2186.283447	1549.731812	32.201637
832.359619	1249.994751	2193.490723	1543.787598	31.138750
832.663635	1246.725464	2209.837158	1546.982544	31.175728
832.967651	1242.267212	2247.880127	1563.329224	31.926998
833.271545	1239.963745	2348.337402	1596.914063	32.204872
833.575439	1242.415649	2518.639404	1658.213745	32.580345
833.879211	1241.375610	2765.175781	1733.779663	32.314213
834.183044	1241.375610	3020.182861	1819.376343	32.493725
834.486694	1246.279419	3213.889893	1878.595703	32.136253
834.790344	1249.771729	3299.115234	1903.041382	31.877020
835.093933	1249.994629	3252.304688	1880.824829	31.505121
835.397522	1245.982300	3114.101563	1830.150391	31.270386
835.700928	1247.839966	2902.338623	1760.528687	30.987556
836.004395	1250.440552	2681.362305	1689.272339	30.667770
836.307739	1255.195923	2493.599365	1636.814575	30.815374
836.611023	1249.920410	2356.065186	1602.635376	31.886871
836.914307	1255.121582	2269.427979	1572.022583	31.243124
837.217529	1257.424927	2187.695068	1545.793823	30.998404
837.520691	1259.951294	2126.395264	1521.273926	30.160362
837.823730	1247.914185	2072.674561	1506.562012	31.360361
838.126831	1243.530396	2037.529297	1486.723145	30.628853
838.429749	1242.713013	2000.452148	1474.389038	30.574642
838.732727	1245.759399	1966.644165	1463.540649	30.210272
839.035522	1250.068970	1939.375366	1455.961548	29.869530
839.338379	1252.000854	1921.839844	1457.744995	30.715462
839.641113	1256.533325	1928.675781	1456.036133	29.681625
839.943848	1255.195801	1962.929199	1468.964844	30.204741
840.246460	1251.703613	2025.789429	1483.973999	30.005768
840.549072	1245.388062	2084.116943	1510.277222	31.582214
840.851563	1249.400269	2123.869141	1529.447266	32.024811
841.154053	1241.004028	2128.104248	1533.162476	32.934097
841.456482	1251.257813	2104.253174	1521.868530	31.724758
841.758850	1245.610962	2055.807861	1494.970703	30.777672
842.061157	1258.167969	1990.718628	1472.457031	29.252457
842.363403	1258.093628	1929.121582	1446.971069	28.147478
842.665588	1257.350586	1879.784546	1433.002319	28.220140
842.967712	1255.567383	1842.558960	1412.791870	26.784794
843.269775	1255.270264	1815.438477	1409.596802	27.550035
843.571777	1251.777954	1784.825684	1408.705200	29.439623
843.873840	1247.022583	1766.250000	1403.578491	30.151703
844.175659	1237.288940	1748.640259	1398.748657	31.575106
844.477600	1242.787354	1741.655884	1394.364868	30.384260
844.779297	1246.056641	1740.838501	1393.324585	29.764217
845.081116	1255.121460	1729.841797	1397.039673	29.895121
845.382751	1257.202026	1720.628296	1391.838501	29.052404
845.684387	1263.369141	1705.916382	1393.101685	29.314959
845.985962	1259.505493	1700.417847	1386.340210	28.766424
846.287537	1254.527222	1683.551147	1379.132813	29.043972
846.588989	1251.777954	1671.216797	1368.879028	27.918510
846.890381	1248.285767	1658.139526	1361.745972	27.683094
847.191711	1250.514771	1659.848633	1362.563232	27.373367
847.493042	1249.474487	1652.938477	1366.352539	28.968645
847.794250	1250.663452	1658.659668	1360.408569	26.898563
848.095459	1246.502319	1652.195190	1356.544678	27.124548
848.396606	1243.158691	1660.888672	1350.154663	25.613668
848.697693	1247.839966	1655.687500	1362.786255	28.183641
848.998657	1251.703613	1654.573242	1363.306396	27.701960
849.299622	1251.703735	1653.384155	1368.804688	29.152765
849.600464	1254.229980	1654.127075	1362.489014	27.071722
849.901367	1255.938843	1659.551270	1365.238159	27.080265
850.202087	1254.081299	1655.687500	1362.265991	26.938004
850.502808	1248.657227	1651.452271	1357.436401	27.006086
850.803467	1248.062866	1643.204712	1355.578857	27.209467
851.104065	1246.948242	1639.192261	1360.631470	28.982782
851.404663	1247.542603	1632.876587	1362.043091	29.714609
851.705139	1242.267212	1629.235840	1359.591064	30.318699
852.005615	1251.183472	1625.000488	1347.628418	25.800041
852.306030	1254.898560	1622.920044	1338.043335	22.592369
852.606384	1256.087524	1616.604370	1337.894775	22.691658
852.906616	1256.904785	1612.443359	1342.947388	24.200638
853.206909	1251.257813	1609.471191	1351.640747	28.023224
853.506958	1257.722046	1613.186157	1353.572632	26.964912
853.807129	1255.344360	1612.146118	1354.390015	27.759296
854.107178	1257.053345	1606.499023	1359.293945	29.257938
854.407166	1255.790161	1598.846069	1354.538574	28.784933
854.707092	1251.034912	1593.050293	1353.795532	30.045614
855.007019	1250.291870	1593.941895	1348.148560	28.475683
855.306763	1244.570679	1588.071899	1346.662476	29.720942
855.606567	1247.319824	1579.155640	1341.238403	28.302725
855.906250	1244.199097	1572.691406	1341.164063	29.518185
856.205933	1249.771851	1577.966797	1342.352905	28.209166
856.505493	1251.034912	1588.740723	1344.210571	27.590778
856.805054	1259.133789	1587.997681	1341.609863	25.079090
857.104492	1259.505493	1584.951538	1349.411743	27.625547
857.403931	1259.951294	1582.648071	1346.885376	26.939867
857.703308	1253.486816	1587.329102	1346.439575	27.843315
858.002563	1248.062866	1593.273438	1338.191895	26.108421
858.301819	1246.130981	1592.827515	1343.244507	28.011105
858.601013	1246.725342	1587.849243	1345.250854	28.882618
858.900208	1252.372437	1579.750122	1348.594360	29.391718
859.199219	1245.908081	1579.304321	1348.668701	30.822369
859.498291	1251.480835	1580.716187	1343.913208	28.074863
859.797302	1251.035034	1580.047363	1334.551147	25.383886
860.096191	1257.722168	1572.839966	1332.990723	23.885847
860.395020	1251.926636	1570.387817	1329.721558	24.428385
860.693787	1246.130981	1566.821411	1337.671875	28.544941
860.992554	1243.753052	1563.775024	1332.173462	27.629480
861.291260	1247.617065	1560.431274	1340.049683	29.548727
861.589844	1246.279419	1555.007324	1334.551270	28.592119
861.888428	1251.703613	1553.744263	1334.996948	27.576862
862.186890	1246.353882	1550.475098	1328.309692	26.948402
862.485413	1254.824341	1557.087891	1329.349976	24.655846
862.783813	1255.790405	1552.704102	1338.192017	27.752714
863.082153	1260.025513	1548.914551	1343.021606	28.729403
863.380371	1252.520996	1549.731934	1336.408691	28.224970
863.678589	1247.171265	1556.790649	1336.780151	28.941628
863.976746	1247.988647	1568.753540	1339.083618	28.399296
864.274902	1252.223633	1572.765747	1348.594360	30.064919
864.572937	1252.075195	1569.570679	1343.690308	28.855564
864.870911	1254.378540	1563.998047	1336.854614	26.637880
865.168884	1254.527100	1565.484009	1329.721558	24.181633
865.466736	1252.223755	1568.604614	1322.365479	22.170027
865.764587	1252.000854	1563.329224	1319.393311	21.646744
866.062317	1252.000854	1554.487183	1324.594604	23.999018
866.360107	1254.081421	1550.028931	1332.842163	26.613079
866.657715	1251.183472	1551.738159	1339.975220	29.542625
866.955322	1243.381714	1548.245728	1340.272461	31.781628
867.252808	1247.988525	1551.292358	1332.767944	27.951977
867.550293	1249.251587	1553.447144	1328.458374	26.038115
867.847717	1252.818237	1553.001099	1329.870117	25.668314
868.145081	1248.657227	1551.069336	1334.996948	28.550352
868.442383	1246.948242	1542.673218	1334.179688	29.497490
868.739624	1252.075073	1537.769043	1335.294189	29.128761
869.036804	1253.486938	1536.505981	1336.185791	29.220243
869.333984	1254.304199	1536.728882	1331.802002	27.440166
869.631042	1258.167969	1541.781372	1324.074585	23.238188
869.928101	1261.065796	1538.140625	1321.399658	21.775295
870.224976	1256.904907	1536.505859	1328.829956	25.724178
870.521851	1256.756226	1538.586304	1334.996948	27.761665
870.818726	1253.486938	1544.827759	1335.888672	28.283621
871.115479	1253.858521	1549.137329	1333.808228	27.076006
871.412231	1250.291870	1550.846313	1328.532715	26.032171
871.708862	1252.743896	1547.502808	1330.984497	26.543930
872.005493	1250.737671	1549.286011	1331.356079	27.003469
872.302063	1247.988525	1549.434570	1331.356079	27.655880
872.598572	1250.217651	1541.781616	1331.504761	27.879683
872.895020	1253.189697	1544.604980	1331.801880	26.975998
873.191406	1251.852295	1543.936157	1332.619263	27.651979
873.487671	1244.793457	1550.251953	1332.470703	28.703489
873.783997	1243.456055	1540.815430	1332.024902	29.785120
874.080200	1250.068970	1538.363403	1335.368652	29.587696
874.376343	1251.703613	1546.388184	1330.910278	26.878456
874.672424	1253.041016	1553.298340	1326.526489	24.474165
874.968445	1249.103027	1548.394409	1321.473755	24.180693
875.264465	1245.387939	1541.930054	1327.046509	27.536922
875.560364	1245.387939	1544.456421	1328.978516	27.950314
875.856201	1243.530273	1544.456421	1334.774048	30.320986
876.152039	1252.000854	1544.159180	1328.012573	26.017303
876.447754	1248.285645	1541.484253	1330.613159	28.079094
876.743469	1246.353760	1548.988770	1320.285034	24.429188
877.039063	1243.158813	1544.233398	1321.325317	25.962505
877.334595	1250.143433	1543.713257	1320.507935	23.968575
877.630127	1249.920410	1541.112793	1325.188965	25.848394
877.925537	1248.731567	1553.595581	1323.703003	24.591763
878.221008	1251.332031	1558.499634	1333.065186	26.608650
878.516296	1254.972778	1561.100220	1334.476929	25.970932
878.811646	1252.446655	1565.707031	1336.854614	26.944984
879.106812	1248.582886	1583.316772	1330.687378	24.528288
879.401978	1244.942017	1604.715820	1342.575806	27.137548
879.697083	1243.381714	1621.359741	1350.749146	28.405733
879.992126	1246.874023	1653.086914	1361.597290	28.242153
880.287109	1251.035034	1704.281372	1376.680786	27.721294
880.582031	1254.675659	1780.813110	1408.259399	29.190802
880.876892	1251.406372	1904.675903	1462.500366	32.313461
881.171753	1256.830444	2150.097900	1551.366577	32.972893
881.466492	1257.202026	2565.821533	1687.786255	32.903698
881.761230	1255.121582	3110.906250	1871.611328	33.219898
882.055786	1247.171265	3673.526611	2066.135742	33.752865
882.350403	1242.936035	4038.873047	2201.218018	34.274090
882.644958	1243.381836	4124.395996	2228.561523	34.195587
882.939453	1241.375610	3908.545898	2148.091553	33.995426
883.233826	1242.638794	3533.837158	2014.421265	33.684666
883.528137	1246.799683	3113.135498	1871.313965	33.462051
883.822449	1252.966797	2748.234619	1749.977661	33.238918
884.116577	1251.555054	2462.391846	1644.319214	32.437416
884.410828	1252.966919	2254.938965	1568.456055	31.486820
884.704956	1249.028809	2096.005371	1511.985962	31.046568
884.999023	1255.790405	1979.127319	1482.116333	31.289145
885.292969	1249.474609	1894.645142	1452.246704	31.429224
885.586914	1251.480835	1824.057617	1428.543945	30.923906
885.880798	1248.434326	1779.252930	1409.968384	30.431122
886.174622	1246.576660	1744.999390	1403.504028	31.484795
886.468384	1244.644897	1721.965454	1399.566040	32.456417
886.762085	1250.291870	1708.813965	1401.646484	33.009232
887.055664	1250.886230	1692.764526	1389.237915	31.309908
887.349304	1252.595337	1673.371582	1379.578613	30.178337
887.642822	1248.731567	1635.180054	1368.656128	31.032482
887.936340	1248.137085	1602.561035	1358.996826	31.278852
888.229736	1244.867798	1578.041016	1348.965942	31.244452
888.523071	1243.381836	1568.381836	1336.111694	28.532265
888.816284	1245.759399	1554.264282	1337.969116	29.889225
889.109619	1260.174194	1542.301636	1334.402588	26.310236
889.402710	1263.666382	1532.642212	1326.155029	23.232067
889.695862	1263.740601	1521.422485	1328.755615	25.230728
889.988892	1248.582886	1512.803345	1319.393433	26.799797
890.281921	1238.031982	1501.286499	1301.337769	24.047369
>>>>>End Processed Spectral Data<<<<<
