Jaz Data File
++++++++++++++++++++++++++++++++++++
Date: Fri Jun 04 12:59:15 2021
User: jaz
Dark Spectrum Present: Yes
Reference Spectrum Present: Yes
Processed Spectrum Present: Yes
Spectrometers: JAZA3586
Integration Time (usec): 40000 (JAZA3586)
Spectra Averaged: 10 (JAZA3586)
Boxcar Smoothing: 1 (JAZA3586)
Correct for Electrical Dark: No (JAZA3586)
Strobe/Lamp Enabled: Yes (JAZA3586)
Correct for Detector Non-linearity: No (JAZA3586)
Correct for Stray Light: No (JAZA3586)
Number of Pixels in Processed Spectrum: 2048
>>>>>Begin Processed Spectral Data<<<<<
W	D	R	S	P
191.335022	0.000000	0.000000	0.000000	0.000000
191.713211	407.921967	415.277924	401.977783	-80.807747
192.091385	817.701477	830.407227	813.837708	-30.409615
192.469528	1229.635742	1241.598511	1225.251831	-36.646294
192.847641	1240.409668	1240.558228	1234.985474	-3651.191406
193.225739	1250.886353	1250.811890	1235.951416	20056.884766
193.603790	1263.666382	1262.774780	1244.124756	2191.744141
193.981842	1266.489868	1265.301147	1255.864624	893.838562
194.359863	1266.712769	1263.963623	1267.084351	-13.516273
194.737854	1268.793091	1260.842896	1264.112183	58.877903
195.115829	1266.415527	1272.508423	1265.003784	-23.170317
195.493774	1274.143066	1280.310181	1263.592041	-171.085297
195.871704	1276.074829	1281.796143	1263.369141	-222.076431
196.249603	1279.567139	1277.560913	1265.003784	725.908142
196.627457	1275.183228	1269.461914	1259.431030	275.324829
197.005310	1269.684937	1271.988281	1267.455688	-96.783081
197.383133	1279.270020	1271.393921	1258.687988	261.322662
197.760910	1276.892212	1271.839722	1261.140015	311.770966
198.138687	1277.040894	1268.570313	1255.790283	250.875473
198.516449	1272.434082	1266.712769	1257.350586	263.636932
198.894180	1270.353516	1263.740723	1255.567261	223.600754
199.271866	1270.056274	1268.941895	1258.019409	1080.140259
199.649536	1260.025513	1264.037964	1265.746826	142.588989
200.027191	1261.585815	1260.694336	1264.112183	-283.390381
200.404816	1258.613770	1258.242310	1257.870850	200.000000
200.782410	1263.963501	1281.350342	1257.127808	-39.315327
201.159988	1261.140015	1299.480103	1265.969849	12.597347
201.537537	1257.647949	1309.511108	1270.725220	25.214952
201.915070	1256.756226	1310.625732	1271.542480	27.448284
202.292557	1259.802612	1308.768188	1269.164795	19.119926
202.670029	1265.301147	1311.517334	1269.462036	9.003098
203.047485	1256.533325	1309.585449	1263.443481	13.025221
203.424911	1254.081177	1310.254272	1261.585938	13.360063
203.802292	1250.663452	1301.263550	1259.802612	18.061546
204.179688	1256.236206	1294.130493	1256.013062	-0.588861
204.557037	1249.400269	1291.604248	1253.264038	9.154988
204.934357	1253.189575	1290.489624	1258.539551	14.343080
205.311661	1253.932617	1288.111938	1262.180298	24.130615
205.688934	1258.762329	1280.384521	1267.232910	39.175404
206.066177	1257.424927	1284.322510	1258.019287	2.209717
206.443390	1257.573608	1282.390625	1258.242188	2.694035
206.820587	1256.682007	1289.598022	1258.093628	4.288554
207.197769	1252.000977	1294.353394	1260.471313	19.999655
207.574921	1245.610840	1299.182983	1258.762573	24.549574
207.952042	1242.490112	1302.080933	1267.530151	42.019958
208.329147	1247.394165	1294.204712	1270.873779	50.158813
208.706223	1258.093628	1299.554565	1269.907837	28.494795
209.083267	1270.130737	1292.867310	1262.923462	-31.699041
209.460297	1260.397095	1292.198608	1271.393921	34.579567
209.837280	1258.019409	1284.471069	1267.975952	37.640522
210.214264	1249.697388	1289.152222	1259.431152	24.670652
210.591217	1249.920288	1295.022095	1249.623169	-0.658774
210.968124	1248.434204	1305.647339	1257.276367	15.454779
211.345016	1252.446655	1300.371948	1264.112183	24.341066
211.721893	1252.595215	1300.520508	1266.118286	28.216982
212.098724	1252.743896	1292.718750	1266.192749	33.643280
212.475555	1242.118530	1301.412109	1268.273071	44.110241
212.852356	1247.765625	1303.492554	1264.335083	29.733305
213.229126	1236.322876	1301.486450	1259.505493	35.576038
213.605865	1246.502441	1302.303833	1251.555054	9.054635
213.982590	1252.520874	1306.464722	1252.520996	0.000226
214.359283	1255.938843	1305.424561	1250.217651	-11.561298
214.735931	1249.771606	1290.786987	1251.183472	3.442282
215.112579	1244.942017	1284.099731	1248.657227	9.487811
215.489197	1248.062744	1286.031494	1246.502563	-4.109118
215.865799	1251.183472	1297.176880	1252.744019	3.392979
216.242355	1248.137085	1302.972534	1251.926392	6.910323
216.618896	1245.982300	1295.765259	1259.431030	27.014727
216.995407	1246.205200	1295.244995	1243.233154	-6.060478
217.371902	1242.638794	1288.632080	1250.663452	17.447456
217.748367	1238.106323	1294.056152	1251.109253	23.240339
218.124802	1239.220947	1290.563965	1263.294922	46.888508
218.501236	1246.131104	1295.467896	1263.294922	34.789085
218.877609	1253.486938	1299.108765	1261.363037	17.263884
219.253983	1254.378540	1301.709351	1261.362915	14.756508
219.630295	1252.372437	1299.851807	1262.031738	20.344208
220.006592	1252.818237	1304.755737	1265.226685	23.891113
220.382889	1256.161743	1310.179810	1263.666382	13.892831
220.759140	1256.756226	1311.220093	1260.619995	7.094189
221.135391	1258.762451	1308.693848	1252.446655	-12.648947
221.511581	1253.189819	1303.566895	1255.493042	4.571966
221.887772	1254.824341	1303.046875	1259.059570	8.782677
222.263931	1253.784180	1300.371948	1268.644653	31.897800
222.640060	1253.635620	1299.405884	1267.827271	31.006268
223.016159	1249.028809	1303.566895	1257.796387	16.076065
223.392212	1246.725464	1306.910522	1253.041016	10.493554
223.768265	1246.428223	1310.105469	1254.824341	13.185430
224.144302	1249.994751	1310.997192	1267.307251	28.380013
224.520294	1252.966797	1309.511230	1271.914063	33.508633
224.896286	1248.805786	1310.254272	1269.833496	34.220062
225.272217	1244.570557	1309.362671	1270.427856	39.908096
225.648148	1241.524170	1309.065308	1270.427856	42.794197
226.024048	1250.886353	1311.442993	1272.731201	36.073414
226.399902	1249.771729	1312.334595	1270.576538	33.254246
226.775772	1256.235962	1313.226318	1271.468140	26.727640
227.151581	1250.217651	1318.278931	1274.886108	36.244480
227.527374	1255.641602	1325.783569	1273.177124	25.000044
227.903137	1250.068970	1337.151733	1281.796265	36.433495
228.278870	1249.177368	1352.903931	1281.499023	31.160442
228.654572	1245.759399	1358.551025	1289.152222	38.471668
229.030273	1244.719116	1369.101929	1288.632202	35.304787
229.405930	1249.103149	1366.427124	1292.049927	36.605286
229.781555	1247.691284	1378.389648	1289.598022	32.063705
230.157181	1248.954468	1373.931641	1288.557739	31.688404
230.532761	1240.409668	1384.110962	1284.173950	30.455036
230.908325	1240.706787	1374.005859	1284.396851	32.775970
231.283859	1236.025635	1372.594238	1281.870605	33.569187
231.659332	1241.524048	1359.888306	1291.232788	41.996410
232.034821	1235.357056	1361.151489	1289.598022	43.118732
232.410263	1244.347656	1361.002930	1287.666138	37.133755
232.785690	1238.552124	1359.219727	1280.681641	34.913692
233.161087	1252.892456	1349.783203	1281.573364	29.601288
233.536469	1249.177368	1349.931763	1282.019165	32.595894
233.911804	1256.682007	1358.105103	1286.402954	29.303925
234.287140	1251.777954	1365.683960	1289.820923	33.398563
234.662430	1257.127686	1361.745972	1291.455566	32.812504
235.037704	1257.945068	1358.996826	1291.381348	33.088272
235.412933	1259.579712	1366.278320	1297.102539	35.167118
235.788162	1251.629272	1374.674683	1303.492554	42.149708
236.163345	1249.994751	1383.813843	1307.950806	43.309258
236.538513	1249.474609	1390.055298	1303.864258	38.689274
236.913635	1246.948364	1401.795044	1305.870239	38.051754
237.288742	1249.326050	1407.070679	1306.910645	36.504948
237.663834	1248.062744	1404.767212	1308.025146	38.264641
238.038879	1249.548828	1403.652710	1314.043579	41.851479
238.413910	1245.833862	1392.878784	1313.895020	46.285961
238.788910	1245.685059	1403.058228	1316.495605	44.995312
239.163879	1249.325806	1415.764038	1311.963135	37.633980
239.538834	1253.709839	1428.841309	1318.724731	37.123478
239.913757	1254.527222	1427.132324	1311.591675	33.060699
240.288651	1253.561157	1432.036255	1318.427490	36.344753
240.663528	1244.644897	1450.314819	1321.176636	37.210953
241.038361	1239.517944	1472.754272	1344.284790	44.918751
241.413177	1236.100098	1501.435059	1364.866577	48.529781
241.787979	1243.827515	1533.088257	1388.866577	50.141289
242.162735	1244.273315	1565.409668	1417.547241	53.956497
242.537476	1243.456055	1579.824585	1426.909546	54.539433
242.912170	1234.762695	1591.267090	1430.253052	54.835327
243.286865	1241.301270	1593.347656	1430.104492	53.630211
243.661514	1245.982422	1592.901855	1420.222168	50.224846
244.036148	1252.223755	1575.589233	1413.832031	49.976971
244.410751	1246.576782	1571.354004	1397.857056	46.579704
244.785339	1249.846069	1566.821411	1404.321289	48.734142
245.159882	1249.623169	1585.768555	1417.473022	49.933708
245.534378	1254.081299	1606.870605	1439.392212	52.527363
245.908890	1249.325928	1652.269653	1462.203125	52.830502
246.283356	1249.400269	1709.408569	1492.518921	52.850925
246.657791	1248.359985	1772.119751	1535.317017	54.787910
247.032196	1245.536499	1829.481567	1585.397095	58.200783
247.406586	1243.827515	1867.375977	1619.799316	60.295521
247.780960	1244.719116	1871.759888	1618.164673	59.556824
248.155289	1251.480835	1851.326538	1603.973022	58.763809
248.529602	1254.750000	1812.986328	1570.908203	56.635189
248.903870	1252.892456	1771.896851	1540.890015	55.490391
249.278122	1250.366211	1724.343262	1511.614624	55.118366
249.652344	1251.629272	1691.724243	1503.738403	57.285164
250.026550	1249.251587	1673.817383	1499.800415	59.012955
250.400711	1248.062744	1669.284790	1495.268066	58.687649
250.774857	1241.598511	1672.405640	1493.038940	58.364964
251.148987	1245.908081	1677.086548	1507.750854	60.727238
251.523071	1241.895630	1687.488892	1506.264771	59.329700
251.897125	1244.867798	1702.869751	1515.552612	59.101234
252.271164	1240.186768	1718.770508	1524.840454	59.478344
252.645187	1244.793457	1727.166870	1537.694824	60.720879
253.019165	1243.678955	1708.665405	1534.054077	62.448082
253.393112	1244.347656	1695.365234	1517.781738	60.626038
253.767044	1248.434204	1678.275513	1505.224609	59.740746
254.140930	1252.818237	1667.427368	1486.277344	56.308239
254.514801	1253.115479	1653.458374	1480.853149	56.885654
254.888657	1255.493164	1650.932129	1486.945923	58.530590
255.262466	1255.715942	1653.607056	1501.583618	61.792702
255.636276	1252.892456	1667.353149	1526.177856	65.937592
256.010010	1247.988403	1685.557251	1530.190308	64.493141
256.383759	1240.632446	1720.108032	1537.843384	61.986668
256.757446	1238.700684	1753.098511	1539.255249	58.428429
257.131134	1228.967041	1788.317871	1566.895874	60.414471
257.504791	1234.465454	1828.812866	1606.202026	62.545334
257.878418	1241.672729	1878.001343	1653.681274	64.747765
258.252014	1254.675659	1953.344238	1703.315796	64.213585
258.625580	1253.189697	2043.473267	1765.284058	64.798813
258.999115	1249.697388	2163.992432	1834.608398	63.973988
259.372650	1238.552002	2270.839844	1920.651001	66.076431
259.746124	1231.790405	2368.696533	1996.142578	67.230896
260.119598	1231.939087	2427.321289	2051.646729	68.572853
260.493042	1237.883301	2439.506836	2062.569092	68.630959
260.866425	1246.353882	2404.733154	2031.510742	67.780640
261.239838	1239.963867	2331.099365	1970.656860	66.966293
261.613159	1242.564331	2239.484131	1908.391113	66.788399
261.986511	1241.226929	2148.314453	1858.979858	68.102905
262.359802	1246.130981	2086.494629	1817.518921	67.992935
262.733063	1237.957642	2070.148193	1797.308594	67.214287
263.106293	1240.632446	2052.389893	1775.909302	65.940491
263.479523	1245.759399	2038.495117	1777.320923	67.054062
263.852692	1251.257813	2026.012329	1769.296387	66.864868
264.225861	1241.598389	2015.312866	1770.708130	68.385658
264.598969	1240.632446	2015.981445	1771.228394	68.433174
264.972076	1244.421875	2014.792480	1777.989868	69.261208
265.345154	1249.400269	2064.723877	1806.373535	68.313156
265.718201	1248.582886	2105.887939	1832.230835	68.079376
266.091217	1239.666504	2163.100830	1867.673218	68.007729
266.464203	1243.604614	2199.434814	1894.570801	68.104797
266.837158	1248.434326	2249.663330	1925.109253	67.584435
267.210114	1256.681885	2285.105957	1949.703491	67.386757
267.583038	1259.133911	2308.288086	1967.758911	67.542503
267.955902	1256.161743	2324.560547	1980.018921	67.751587
268.328766	1249.400269	2323.817627	1996.959839	69.578133
268.701569	1238.106323	2334.517090	2008.922485	70.303596
269.074371	1240.484009	2333.848389	2011.374634	70.506287
269.447144	1240.632446	2361.563232	2020.736938	69.594353
269.819885	1245.610840	2416.101563	2061.157471	69.675613
270.192596	1241.524048	2509.425781	2147.274170	71.436935
270.565277	1247.022583	2630.985107	2237.552246	71.571999
270.937927	1246.651001	2745.559814	2318.319336	71.496567
271.310577	1245.685059	2832.197021	2363.124023	70.433693
271.683136	1244.421875	2878.858643	2398.789063	70.627831
272.055725	1253.264038	2895.205811	2408.077148	70.332161
272.428284	1265.746948	2876.630127	2404.138916	70.668808
272.800812	1268.644653	2843.936768	2381.253662	70.628746
273.173279	1258.911011	2770.079834	2334.368408	71.167259
273.545776	1248.137207	2743.702393	2307.396729	70.826706
273.918152	1252.669556	2710.786133	2282.356689	70.617615
274.290558	1254.229980	2709.597412	2285.031494	70.827576
274.662964	1258.242188	2685.151611	2283.471191	71.849617
275.035278	1246.205200	2689.386719	2294.096680	72.609818
275.407593	1242.192871	2720.148193	2307.768311	72.097946
275.779907	1235.431274	2764.507080	2351.904053	73.016182
276.152161	1244.199097	2822.611572	2381.848389	72.075539
276.524384	1249.103149	2866.524658	2429.698975	72.992462
276.896606	1252.818237	2894.462646	2442.404785	72.463104
277.268799	1247.394043	2886.883545	2455.184814	73.668709
277.640930	1245.759399	2888.666748	2451.841064	73.411423
278.013031	1242.713013	2881.608154	2450.801025	73.713562
278.385162	1246.130859	2899.886719	2450.800781	72.844482
278.757233	1250.737671	2904.865234	2452.658447	72.661919
279.129272	1255.493042	2946.028564	2480.447754	72.459564
279.501282	1254.675659	2975.452393	2505.710693	72.701767
279.873230	1253.264038	3051.241455	2559.431396	72.646484
280.245178	1255.121582	3138.398438	2608.025391	71.837753
280.617126	1255.121582	3236.254883	2692.136230	72.534981
280.988983	1256.681885	3320.365479	2773.869141	73.518402
281.360870	1253.264038	3407.002686	2853.595947	74.304832
281.732697	1246.948242	3485.020508	2914.301514	74.499527
282.104492	1246.874023	3536.438232	2933.100342	73.648354
282.476288	1244.496216	3547.360596	2947.143311	73.936058
282.848053	1248.880127	3540.153076	2936.517578	73.655014
283.219757	1241.821289	3532.277100	2942.536377	74.252258
283.591461	1241.672729	3511.546631	2926.487061	74.225014
283.963135	1245.908081	3533.317383	2945.434326	74.299179
284.334747	1251.926636	3581.985596	2984.294678	74.348671
284.706360	1258.911011	3668.325439	3053.693359	74.490395
285.077942	1259.728394	3752.881836	3130.150391	75.022339
285.449524	1264.112183	3818.714111	3184.986084	75.192688
285.821014	1260.471313	3849.252686	3193.159424	74.656296
286.192535	1259.059692	3879.270752	3210.471924	74.475388
286.563995	1251.852173	3870.874756	3208.242920	74.699272
286.935425	1252.595337	3855.048096	3214.855713	75.400429
287.306824	1248.434204	3779.184814	3167.079346	75.813286
287.678223	1245.090698	3732.968750	3120.937256	75.399460
288.049561	1242.415771	3696.337891	3080.219482	74.892502
288.420898	1243.753296	3694.182861	3061.792236	74.192657
288.792145	1243.827515	3720.857422	3094.411133	74.709785
289.163452	1245.685059	3790.181885	3163.215576	75.359909
289.534668	1240.186646	3913.301514	3261.963867	75.633759
289.905914	1242.713013	4016.136475	3349.418213	75.960457
290.277039	1240.261108	4124.023926	3422.829346	75.684746
290.648193	1252.446655	4150.104492	3464.438721	76.337250
291.019318	1253.858398	4165.781738	3474.172607	76.249062
291.390381	1252.595215	4100.841797	3429.590820	76.432838
291.761475	1243.010132	4044.445313	3376.092529	76.142494
292.132507	1241.821411	3996.594482	3334.780273	75.975731
292.503510	1242.415771	3986.935547	3335.523438	76.264984
292.874481	1245.313599	4028.098877	3372.897461	76.455200
293.245422	1242.713013	4106.116699	3444.376953	76.889748
293.616364	1240.409546	4238.301270	3549.663818	77.029282
293.987213	1241.821411	4366.770996	3644.919922	76.900391
294.358093	1250.440552	4465.221680	3708.746094	76.468834
294.728943	1253.932739	4551.709961	3783.865967	76.716309
295.099731	1253.041138	4634.780762	3853.933350	76.909882
295.470490	1252.297974	4746.234375	3939.678711	76.915558
295.841248	1250.960571	4840.228027	4015.690186	77.027679
296.211975	1250.737671	4932.363281	4096.828613	77.305275
296.582642	1245.536499	5032.077637	4175.664063	77.382690
296.953308	1253.561157	5075.767578	4207.763184	77.290489
297.323883	1257.870728	5091.668457	4196.840332	76.659485
297.694519	1262.031738	4994.331543	4141.931152	77.161522
298.065063	1255.418823	4903.905762	4067.702393	77.080826
298.435608	1246.279663	4776.030273	3952.607422	76.671928
298.806122	1237.437500	4613.901855	3825.550049	76.651558
299.176575	1233.870972	4445.457520	3697.155029	76.699921
299.547028	1241.598511	4328.430176	3631.471436	77.421555
299.917450	1246.502319	4293.211426	3594.691406	77.072968
300.287872	1257.499146	4292.245605	3598.257813	77.131935
300.658234	1252.818115	4278.127441	3594.096924	77.389732
301.028564	1247.616943	4257.396973	3594.839844	77.986526
301.398865	1236.545898	4225.373047	3568.090820	78.008690
301.769135	1245.685059	4183.020508	3534.877686	77.934326
302.139374	1261.362915	4145.645996	3491.039063	77.304344
302.509583	1261.140015	4107.305664	3461.169189	77.298012
302.879791	1255.121582	4070.080078	3439.472656	77.597984
303.249939	1249.846069	4026.093018	3414.656006	77.976128
303.620087	1252.446655	3988.198486	3385.380127	77.965164
303.990173	1247.319702	3977.127197	3377.801514	78.045128
304.360260	1247.988525	3975.269531	3371.782959	77.872223
304.730286	1244.942017	3978.241943	3377.132813	78.007942
305.100281	1244.793579	3968.136719	3368.885498	77.995743
305.470276	1239.146606	3973.709717	3387.906982	78.577827
305.840179	1243.010254	3994.811523	3417.256592	79.011749
306.210144	1250.514771	4026.389893	3445.416992	79.070648
306.579987	1254.601440	4080.408203	3471.422852	78.449150
306.949890	1253.412598	4129.225098	3498.989258	78.084946
307.319702	1245.016479	4194.760254	3557.614258	78.399956
307.689484	1240.558228	4268.097168	3630.059570	78.925537
308.059265	1247.319702	4363.278320	3706.071289	78.908348
308.429016	1251.926392	4461.803711	3775.172852	78.608810
308.798737	1250.812012	4540.119141	3822.503906	78.183395
309.168396	1244.347656	4591.388184	3868.868408	78.413177
309.538055	1242.564453	4603.351074	3884.769287	78.618645
309.907684	1247.988525	4598.372559	3899.109619	79.128876
310.277313	1252.446655	4599.338867	3907.728760	79.335762
310.646851	1254.527100	4599.636230	3929.053467	79.953339
311.016388	1255.121582	4574.447266	3932.397217	80.657211
311.385895	1248.359985	4508.837891	3905.202393	81.486282
311.755371	1247.542603	4453.036621	3862.626953	81.581322
312.124817	1246.056519	4412.541504	3831.716797	81.657112
312.494232	1253.115356	4391.811035	3790.107422	80.829498
312.863617	1256.161743	4376.876465	3771.829102	80.611900
313.232971	1254.675659	4388.615723	3780.151123	80.584686
313.602295	1252.372314	4442.262695	3852.076172	81.498222
313.971619	1249.325928	4521.914551	3923.629639	81.718300
314.340820	1246.056641	4563.747559	3957.363281	81.722702
314.710083	1242.118530	4560.849609	3957.808838	81.829185
315.079285	1245.833740	4494.423340	3916.125000	82.198479
315.448486	1241.970093	4428.219238	3865.153320	82.328255
315.817596	1251.034912	4323.749512	3774.355469	82.120239
316.186707	1247.691284	4221.359863	3694.182373	82.271820
316.555786	1259.133911	4118.896973	3627.607422	82.820618
316.924866	1252.372314	4079.813721	3590.975830	82.710945
317.293884	1255.938843	4084.643555	3604.647705	83.031258
317.662872	1244.644897	4118.822754	3625.452393	82.834389
318.031830	1244.942017	4154.265137	3675.309814	83.537216
318.400757	1240.632446	4180.939941	3698.046143	83.576752
318.769684	1243.753174	4214.970703	3729.253662	83.652596
319.138550	1241.969971	4205.905762	3727.841797	83.870636
319.507416	1243.456177	4173.435059	3723.606689	84.647377
319.876190	1240.335327	4115.330566	3696.857666	85.444405
320.244995	1242.415771	4062.352783	3654.727783	85.544891
320.613770	1240.706787	4031.739990	3612.226807	84.969254
320.982483	1248.508667	4032.185791	3603.162109	84.587868
321.351166	1250.886230	4075.504639	3620.400146	83.887932
321.719818	1254.601440	4133.163574	3683.408936	84.375725
322.088440	1262.180298	4243.057129	3793.673828	84.924461
322.457062	1258.911133	4397.234863	3943.171143	85.531647
322.825623	1259.059692	4569.469238	4074.166748	85.038025
323.194183	1252.595337	4700.167480	4175.589844	84.784142
323.562653	1250.440552	4761.764160	4234.512207	84.984238
323.931183	1249.994629	4774.544434	4250.636230	85.135460
324.299591	1251.480835	4710.272949	4230.054199	86.115997
324.668060	1254.898682	4649.121094	4184.283691	86.305038
325.036407	1250.366211	4575.710449	4133.980469	86.716263
325.404755	1245.536499	4531.425781	4064.284424	85.783417
325.773102	1242.564331	4460.020508	4017.176514	86.236214
326.141388	1240.558228	4382.002441	3966.576416	86.775948
326.509674	1246.353760	4307.105469	3907.728516	86.951668
326.877899	1249.846069	4242.091309	3848.137939	86.834198
327.246124	1253.858398	4196.395020	3801.030029	86.563805
327.614288	1251.257813	4161.695313	3780.968018	86.918556
327.982422	1252.520996	4164.964355	3776.287109	86.654602
328.350525	1251.332153	4178.190430	3773.760742	86.182121
328.718628	1245.982300	4217.348145	3812.027100	86.359108
329.086700	1238.477783	4255.316895	3853.190430	86.670601
329.454712	1236.694458	4311.415527	3911.072266	86.979523
329.822693	1240.929810	4338.981445	3937.821045	87.051193
330.190674	1244.644897	4382.597168	3962.341064	86.607323
330.558563	1252.966797	4409.940918	3981.659912	86.433815
330.926483	1249.103027	4492.639648	4035.305908	85.900154
331.294312	1248.211426	4570.434082	4106.116699	86.023895
331.662231	1238.031860	4679.139160	4208.357422	86.318886
332.029999	1235.357056	4747.052246	4274.115234	86.532516
332.397766	1237.214722	4805.082520	4338.461426	86.921570
332.765503	1247.765625	4853.453613	4372.269043	86.654846
333.133240	1255.270142	4897.589355	4395.600098	86.217865
333.500916	1259.208130	4911.632813	4397.606445	85.926437
333.868561	1256.756226	4889.490723	4376.281738	85.872650
334.236176	1262.923340	4863.039063	4355.030762	85.889114
334.603790	1262.031738	4832.352051	4325.830078	85.812981
334.971344	1254.007080	4795.646484	4312.604004	86.361046
335.338867	1250.143311	4756.934570	4290.388184	86.695915
335.706360	1246.651001	4741.553711	4267.576660	86.438049
336.073853	1247.468384	4766.519531	4255.687988	85.483826
336.441284	1242.044312	4811.101074	4269.731445	84.831573
336.808655	1239.220825	4850.109863	4286.820801	84.400269
337.176086	1238.923462	4901.378906	4312.158203	83.911865
337.543396	1243.901978	4921.960938	4340.096191	84.180115
337.910706	1247.691406	4942.691406	4358.151855	84.180252
338.277954	1256.756226	4929.911133	4367.291016	84.682915
338.645264	1250.663452	4893.428223	4329.842285	84.528618
339.012421	1249.771851	4842.977051	4294.994629	84.749481
339.379669	1241.970093	4748.761230	4207.466309	84.564377
339.746796	1247.319702	4669.331543	4140.965332	84.559776
340.113953	1247.245483	4588.416016	4082.860596	84.868919
340.481018	1254.378418	4571.178223	4066.067627	84.771149
340.848114	1252.149414	4581.506348	4082.265625	85.004890
341.215118	1253.709717	4637.307129	4126.401855	84.900528
341.582153	1250.440430	4753.145020	4229.607910	85.053345
341.949066	1246.651001	4923.669434	4356.813965	84.583832
342.316010	1242.341431	5151.407715	4520.577148	83.862373
342.682922	1237.660278	5370.972168	4684.043457	83.380669
343.049835	1237.957642	5673.830078	4899.967285	82.554443
343.416656	1240.558228	5945.035156	5114.033203	82.335930
343.783478	1240.483887	6176.710938	5291.319824	82.063400
344.150269	1249.920288	6281.255371	5375.728027	82.002243
344.516998	1248.211426	6281.105957	5381.671387	82.128883
344.883728	1255.938843	6186.667480	5337.907227	82.786308
345.250427	1250.143433	6072.761230	5269.251465	83.338722
345.617065	1258.688110	5957.071777	5161.363770	83.064217
345.983704	1255.864624	5849.259277	5036.164063	82.298599
346.350281	1261.734497	5704.665527	4900.189941	81.893135
346.716827	1254.155518	5574.857910	4781.899902	81.647476
347.083405	1252.446655	5496.617676	4707.522949	81.407562
347.449860	1247.394043	5445.274902	4636.787109	80.740570
347.816376	1247.022583	5417.187988	4608.997559	80.619705
348.182770	1242.564453	5415.999512	4596.365723	80.360695
348.549194	1235.951538	5461.026855	4622.000488	80.141739
348.915558	1239.517944	5530.945801	4659.746582	79.699081
349.281921	1240.409668	5604.654297	4704.179199	79.366989
349.648193	1242.490112	5645.446777	4733.380371	79.285141
350.014526	1241.004028	5684.975098	4746.457520	78.881104
350.380737	1245.536377	5704.889160	4759.015137	78.788986
350.746948	1247.468384	5751.699219	4791.187988	78.675354
351.113159	1247.245483	5805.271484	4833.986328	78.690659
351.479309	1246.874023	5882.100098	4868.686035	78.136688
351.845428	1248.359985	5994.371582	4948.338867	77.959755
352.211517	1238.329224	6110.135254	5025.241699	77.731186
352.577576	1235.877075	6229.540527	5113.438965	77.649643
352.943604	1234.613892	6340.623047	5177.041992	77.211540
353.309601	1245.759399	6482.392578	5263.232910	76.718636
353.675537	1238.997925	6637.536621	5374.464355	76.603439
354.041473	1243.084595	6782.798340	5477.521973	76.437836
354.407379	1236.248657	6896.556152	5557.546387	76.343872
354.773254	1245.982300	7027.105469	5632.963379	75.884583
355.139038	1242.267212	7175.414063	5727.699219	75.599548
355.504913	1243.307373	7403.746094	5903.128418	75.641068
355.870636	1241.895630	7653.254395	6079.746094	75.457489
356.236389	1238.997925	7906.626953	6264.685547	75.374435
356.602081	1241.301270	8136.371094	6416.114746	75.050919
356.967804	1242.861694	8302.883789	6513.153809	74.649796
357.333405	1246.799683	8403.192383	6568.583496	74.364052
357.699036	1253.041138	8421.247070	6546.812500	73.850716
358.064606	1255.493164	8382.758789	6502.453613	73.618141
358.430176	1257.796509	8328.592773	6450.292969	73.435806
358.795654	1261.214355	8379.861328	6452.150879	72.920273
359.161163	1263.963501	8560.639648	6544.806641	72.373268
359.526581	1256.607544	8931.335938	6752.259766	71.607124
359.892029	1254.675659	9428.792969	7065.520020	71.088341
360.257416	1243.010254	9947.723633	7447.584473	71.278336
360.622772	1249.548828	10385.885742	7755.717285	71.212006
360.988098	1248.880127	10632.868164	7965.251465	71.572670
361.353394	1256.904785	10727.529297	8019.121094	71.402008
361.718658	1254.824341	10551.877930	7892.731934	71.397972
362.083893	1243.901855	10170.481445	7608.078125	71.294678
362.449097	1233.053589	9593.967773	7182.769531	71.161072
362.814209	1232.459229	9000.958008	6739.033691	70.883377
363.179382	1236.545898	8412.777344	6274.939453	70.209465
363.544434	1251.777954	8018.229004	5949.344238	69.424377
363.909546	1256.533325	7757.575684	5710.609375	68.513260
364.274536	1257.127808	7629.700684	5602.127441	68.182816
364.639587	1249.474609	7498.927734	5504.122559	68.080322
365.004517	1247.765625	7432.055176	5453.002441	67.998703
365.369507	1255.121582	7386.656250	5385.832520	67.368301
365.734344	1249.771729	7388.142090	5328.248535	66.442345
366.099274	1250.291870	7391.708496	5286.341309	65.718544
366.464081	1238.626343	7374.395996	5220.732422	64.899864
366.828918	1245.759399	7315.919922	5179.122559	64.798340
367.193665	1240.781250	7226.905762	5099.395996	64.459312
367.558411	1245.387939	7145.915527	5053.773926	64.543144
367.923126	1245.387939	7061.358887	4971.744141	64.071098
368.287781	1249.548950	7021.384277	4919.211914	63.578789
368.652435	1255.567383	6973.310547	4866.604980	63.154945
369.017059	1247.617065	7021.458984	4866.233887	62.672600
369.381653	1251.555054	7064.257324	4871.286621	62.272785
369.746185	1249.177368	7151.488281	4889.713379	61.679844
370.110687	1264.855347	7225.419434	4888.673340	60.796562
370.475220	1259.653931	7306.855469	4920.475098	60.537445
370.839661	1258.985229	7362.433594	4946.852051	60.422676
371.204041	1256.161743	7384.947266	4964.833496	60.512344
371.568451	1261.957397	7382.421387	4915.645020	59.696251
371.932770	1267.530151	7356.638184	4882.431641	59.366684
372.297150	1260.545532	7321.864746	4828.413574	58.862896
372.661377	1256.458862	7322.384766	4833.837402	58.974979
373.025696	1246.651001	7363.622559	4817.639648	58.378376
373.389862	1253.784058	7421.207520	4836.884277	58.097198
373.754059	1250.886353	7496.029785	4846.320313	57.571682
374.118225	1255.864624	7616.400879	4896.400879	57.236309
374.482361	1254.007080	7792.571777	4960.152344	56.681328
374.846436	1250.589233	8005.300781	5050.578613	56.256870
375.210510	1251.034790	8274.053711	5182.837891	55.984516
375.574524	1251.406372	8587.833984	5316.730957	55.412865
375.938538	1250.068970	8904.140625	5445.274902	54.810123
376.302460	1247.617065	9150.379883	5529.756348	54.185345
376.666412	1243.679077	9266.589844	5585.632324	54.119427
377.030304	1244.644897	9223.791992	5575.453125	54.276581
377.394196	1244.273315	9087.000000	5475.738770	53.954010
377.757996	1247.022583	8876.722656	5331.369141	53.532204
378.121796	1261.288696	8621.047852	5163.073242	53.015114
378.485565	1255.121582	8348.059570	5015.062500	53.009640
378.849304	1251.406372	8132.209473	4867.125488	52.547924
379.212982	1244.199097	8015.108887	4760.055176	51.925903
379.576630	1243.010132	7968.892090	4682.854492	51.143394
379.940277	1245.536621	7958.638672	4638.793457	50.546780
380.303864	1249.177368	7941.103027	4602.458984	50.109367
380.667450	1257.276367	7956.707031	4577.195801	49.555248
381.030945	1259.431030	7956.632813	4557.580566	49.246677
381.394501	1253.858276	7997.052734	4554.236816	48.943844
381.757935	1263.294800	8051.294434	4555.723145	48.503662
382.121399	1260.322754	8139.789063	4557.951660	47.934372
382.484741	1264.780884	8295.973633	4584.329102	47.211739
382.848145	1255.864624	8434.547852	4628.464844	46.980762
383.211487	1255.567505	8541.097656	4662.198730	46.758865
383.574768	1249.400269	8609.010742	4672.898438	46.517384
383.938019	1248.954468	8671.127930	4659.746582	45.954086
384.301270	1249.623169	8704.490234	4648.378418	45.591091
384.664459	1248.211548	8714.297852	4634.260254	45.352394
385.027649	1243.158936	8711.250977	4609.443359	45.075562
385.390778	1237.289063	8858.518555	4613.232910	44.296577
385.753876	1238.552124	8963.063477	4629.728027	43.901493
386.116943	1244.719238	9057.874023	4641.021973	43.469032
386.479980	1246.502441	9053.266602	4631.882813	43.364708
386.842987	1250.514771	9083.507813	4596.663086	42.718643
387.205994	1250.737671	9091.681641	4554.756348	42.138020
387.568909	1249.251587	9069.166992	4518.645020	41.808552
387.931793	1248.805786	8992.487305	4470.645996	41.606052
388.294678	1243.753174	8940.401367	4439.066895	41.515652
388.657471	1251.406372	8942.926758	4387.872559	40.778236
389.020294	1245.090698	9036.250977	4366.250488	40.060268
389.383057	1248.434448	9215.469727	4379.253418	39.297165
389.745819	1241.004028	9412.296875	4419.896973	38.903183
390.108521	1248.731567	9637.731445	4480.082520	38.518906
390.471191	1245.759399	9898.311523	4554.013672	38.234436
390.833801	1247.542603	10131.473633	4624.452637	38.011440
391.196442	1244.347656	10292.709961	4660.192383	37.750973
391.558960	1248.880127	10336.772461	4643.325684	37.351295
391.921509	1252.372437	10299.323242	4589.901855	36.891205
392.284027	1247.096802	10250.580078	4538.187012	36.553524
392.646484	1245.165039	10222.271484	4492.937012	36.178383
393.008911	1247.839966	10210.754883	4452.145020	35.750702
393.371307	1256.756226	10217.590820	4405.854004	35.142906
393.733673	1257.053345	10158.817383	4365.433594	34.918701
394.096008	1253.561279	10065.493164	4324.938965	34.854759
394.458344	1252.892578	9924.168945	4258.660645	34.663502
394.820587	1252.372437	9715.452148	4157.162598	34.323082
395.182831	1253.189697	9511.565430	4065.770508	34.057312
395.545013	1246.502441	9263.989258	3977.870361	34.067631
395.907196	1247.468384	9097.921875	3899.703857	33.784485
396.269287	1246.056641	8998.876953	3825.029297	33.264961
396.631409	1251.555054	8970.938477	3785.872070	32.830563
396.993469	1249.028809	8967.075195	3765.810547	32.609051
397.355530	1253.486816	8959.942383	3756.819580	32.483582
397.717499	1254.824341	9019.161133	3738.244141	31.984959
398.079468	1253.635498	9061.736328	3733.489014	31.760010
398.441376	1251.406372	9108.695313	3720.485596	31.424059
398.803284	1250.143188	9064.931641	3708.225830	31.454243
399.165131	1251.257813	9037.737305	3683.631592	31.238428
399.526978	1249.400269	8996.573242	3657.997314	31.090015
399.888763	1234.614014	8988.399414	3651.755859	31.173702
400.250519	1235.654175	9006.380859	3644.028076	30.992907
400.612244	1237.660400	9042.045898	3643.879639	30.831629
400.973938	1249.103027	9134.850586	3638.901367	30.305286
401.335602	1245.462280	9215.543945	3654.727783	30.228870
401.697205	1242.787231	9357.981445	3690.987549	30.168102
402.058807	1244.496216	9504.729492	3729.104736	30.079155
402.420349	1247.394043	9742.720703	3782.082764	29.836273
402.781860	1255.121582	9964.737305	3832.757080	29.595285
403.143341	1250.440552	10177.168945	3886.626709	29.531380
403.504822	1253.635498	10352.672852	3916.793213	29.268566
403.866241	1248.657227	10481.663086	3944.656982	29.199589
404.227631	1252.075195	10580.484375	3945.325928	28.871490
404.588959	1246.353882	10579.147461	3934.254639	28.800602
404.950287	1239.220825	10534.342773	3911.146484	28.745462
405.311554	1241.672729	10438.937500	3871.692139	28.595671
405.672821	1247.691406	10332.833984	3827.035889	28.390799
406.034027	1252.223755	10211.645508	3756.596924	27.952396
406.395203	1251.035034	10036.811523	3688.535400	27.743711
406.756348	1248.285767	9926.917969	3642.988037	27.593084
407.117493	1253.561157	9867.698242	3616.833252	27.434809
407.478516	1252.149536	9909.828125	3609.254639	27.225599
407.839600	1256.682007	9972.317383	3608.065674	26.978912
408.200592	1250.291870	10109.553711	3605.688232	26.586826
408.561554	1251.852173	10256.153320	3620.845703	26.309580
408.922485	1246.576782	10412.040039	3622.777588	25.925594
409.283417	1250.291870	10503.656250	3637.712891	25.800571
409.644257	1252.075195	10580.261719	3639.421631	25.592825
410.005096	1254.973022	10627.741211	3634.888916	25.391815
410.365906	1247.542725	10595.270508	3609.552002	25.268272
410.726715	1248.508667	10555.518555	3580.499268	25.056284
411.087433	1249.846069	10477.575195	3543.719727	24.858482
411.448120	1253.561279	10433.141602	3514.592773	24.631100
411.808807	1250.886230	10398.219727	3486.283447	24.437691
412.169434	1247.691284	10384.697266	3463.695557	24.253069
412.530029	1252.149536	10449.710938	3445.045654	23.842146
412.890564	1252.298096	10526.318359	3447.126221	23.666414
413.251099	1259.431152	10669.424805	3449.652344	23.275478
413.611572	1254.378540	10819.516602	3463.250000	23.092941
413.972076	1251.629395	10997.026367	3469.045654	22.753473
414.332489	1241.078247	11132.182617	3489.255859	22.729290
414.692871	1240.483887	11331.239258	3517.044922	22.560858
415.053223	1242.118530	11504.663086	3528.413330	22.278049
415.413574	1240.038086	11772.450195	3545.948486	21.893469
415.773834	1238.403442	11986.812500	3553.081787	21.535078
416.134094	1236.397339	12251.702148	3588.747314	21.355289
416.494263	1241.375610	12520.454102	3624.338135	21.127279
416.854462	1244.867798	12897.391602	3669.365479	20.806631
417.214630	1251.183594	13295.952148	3723.086182	20.522625
417.574738	1250.143311	13692.877930	3766.553467	20.223932
417.934784	1246.205200	14131.708008	3830.602295	20.056625
418.294861	1243.827515	14667.132813	3902.824219	19.808805
418.654846	1244.347656	15290.682617	3990.353271	19.549623
419.014832	1255.938843	15891.049805	4067.702393	19.212452
419.374756	1256.533325	16548.554688	4142.971191	18.875450
419.734680	1258.465210	17211.779297	4222.920410	18.582064
420.094543	1250.291870	17748.320313	4281.917480	18.375683
420.454376	1253.858398	18062.025391	4322.115234	18.254559
420.814148	1257.796387	18194.431641	4324.195801	18.105127
421.173920	1258.167969	18334.640625	4333.186523	18.007339
421.533691	1247.616943	18402.181641	4304.282227	17.818378
421.893341	1243.827515	18435.544922	4284.518066	17.686951
422.253021	1242.861450	18394.308594	4230.054199	17.416565
422.612640	1239.740845	18349.427734	4190.599121	17.246712
422.972260	1234.168091	18361.613281	4153.076172	17.042286
423.331757	1236.694458	18420.089844	4128.927734	16.831560
423.691315	1247.542603	18534.888672	4116.370605	16.594959
424.050781	1249.474487	18536.150391	4087.169678	16.415506
424.410248	1242.415894	18356.412109	4041.102295	16.353203
424.769653	1235.357056	18095.681641	3965.016357	16.189838
425.128998	1234.614014	17700.244141	3876.150146	16.042727
425.488373	1241.078369	17243.654297	3782.380127	15.880579
425.847656	1239.369385	16828.748047	3694.479736	15.748610
426.206940	1238.774902	16436.132813	3609.477539	15.599440
426.566193	1239.740845	16109.350586	3526.184326	15.376620
426.925385	1248.285645	15682.109375	3438.135742	15.171656
427.284576	1251.257813	15285.407227	3361.603760	15.037220
427.643677	1251.629272	14965.608398	3297.109131	14.915290
428.002777	1245.462280	14761.793945	3243.239502	14.780469
428.361847	1245.610718	14557.239258	3188.255127	14.593589
428.720856	1242.935913	14368.733398	3136.392334	14.425458
429.079865	1251.332153	14257.057617	3094.039795	14.168434
429.438812	1258.539551	14247.471680	3074.646484	13.981957
429.797760	1256.607666	14252.598633	3050.944092	13.806846
430.156616	1250.663452	14093.887695	3017.953369	13.760485
430.515503	1242.490112	13964.453125	2979.241943	13.651603
430.874268	1248.062744	13931.090820	2955.316162	13.460929
431.233093	1243.084473	14089.282227	2950.560791	13.291687
431.591827	1244.867798	14318.581055	2947.514648	13.023438
431.950562	1243.901855	14463.247070	2942.684814	12.850734
432.309204	1251.257813	14589.413086	2936.369385	12.633768
432.667877	1254.527222	14731.925781	2931.242432	12.440941
433.026459	1249.548828	14828.816406	2924.481201	12.334482
433.385010	1238.106323	14904.679688	2923.514893	12.332342
433.743561	1235.728394	14866.710938	2912.072266	12.298041
434.102051	1244.793457	14874.141602	2906.945313	12.195388
434.460510	1250.737671	14901.335938	2894.165283	12.039235
434.818939	1247.617065	14921.398438	2879.676514	11.935685
435.177338	1239.443604	14924.296875	2866.524658	11.889649
435.535675	1241.152588	14876.743164	2857.533936	11.854135
435.894012	1242.713013	14903.639648	2843.788086	11.720106
436.252289	1248.062866	15073.495117	2838.735352	11.505408
436.610535	1241.301270	15162.510742	2817.485107	11.322176
436.968719	1245.016357	15455.784180	2826.846924	11.131211
437.326935	1245.387939	15671.855469	2844.902588	11.087361
437.685028	1256.904907	15993.215820	2858.722656	10.869869
438.043152	1258.167969	16156.903320	2864.815674	10.783786
438.401215	1252.446655	16456.939453	2867.119141	10.619706
438.759277	1244.199097	16795.685547	2890.895752	10.588677
439.117249	1240.186646	17329.326172	2930.945068	10.508694
439.475250	1244.644897	17766.597656	2966.907471	10.424086
439.833130	1252.595215	18224.673828	3005.693359	10.329308
440.191071	1254.081421	18371.791016	3004.727783	10.227107
440.548889	1257.127686	18417.861328	2996.108643	10.133488
440.906708	1248.657227	18279.064453	2963.489990	10.069242
441.264496	1250.960571	18078.222656	2940.975830	10.043317
441.622223	1251.926514	17851.525391	2904.047607	9.952777
441.979950	1265.598267	17564.271484	2873.657471	9.866198
442.337616	1263.146362	17361.054688	2840.444336	9.798155
442.695251	1250.811890	17133.314453	2816.147461	9.855723
443.052887	1235.282593	17057.898438	2789.250000	9.821178
443.410461	1233.722290	17137.550781	2787.763672	9.771493
443.768005	1241.301270	17366.921875	2792.518799	9.619583
444.125458	1254.229980	17661.384766	2803.218750	9.440935
444.482941	1257.350708	18000.947266	2826.698242	9.372823
444.840393	1252.149536	18474.330078	2855.973633	9.312550
445.197754	1242.936035	18906.625000	2891.267578	9.331751
445.555084	1239.815308	19266.472656	2913.186768	9.282761
445.912415	1245.090698	19434.841797	2926.189453	9.242010
446.269714	1249.920410	19558.705078	2932.579834	9.190448
446.626953	1248.805786	19592.884766	2920.319580	9.112007
446.984161	1248.137085	19464.341797	2899.886719	9.067473
447.341309	1251.332153	19219.142578	2862.438232	8.966624
447.698456	1258.167969	18886.339844	2835.763428	8.949286
448.055542	1263.517700	18676.435547	2821.571533	8.947689
448.412598	1257.573608	18349.724609	2796.011475	9.000844
448.769653	1255.864624	18042.781250	2746.376953	8.879012
449.126617	1260.619995	17578.166016	2682.476807	8.713668
449.483582	1267.010132	17316.919922	2654.910400	8.647402
449.840515	1264.112305	17031.076172	2631.282227	8.671104
450.197388	1258.242310	16877.712891	2616.496094	8.695902
450.554230	1248.805786	16744.638672	2590.787354	8.660274
450.911041	1248.880005	16689.208984	2579.716064	8.619221
451.267822	1248.731445	16772.130859	2581.573730	8.586020
451.624573	1256.161743	16841.083984	2595.245361	8.592175
451.981262	1257.053467	16787.585938	2577.561279	8.502657
452.337921	1250.737793	16597.146484	2553.561768	8.489439
452.694580	1256.459106	16258.104492	2514.181396	8.383896
453.051147	1253.709839	16032.817383	2506.825195	8.478965
453.407715	1254.527222	15670.963867	2480.522217	8.504148
453.764221	1249.177368	15524.958008	2476.435303	8.596784
454.120728	1253.338257	15227.823242	2452.063965	8.577960
454.477142	1255.121582	15217.866211	2441.958984	8.500030
454.833557	1253.412598	15151.290039	2414.021240	8.350978
455.189911	1251.183594	15213.704102	2405.327881	8.266017
455.546265	1247.022583	15276.639648	2405.402100	8.256672
455.902557	1250.366211	15354.657227	2418.479248	8.281969
456.258820	1252.669556	15563.968750	2438.541016	8.286261
456.615051	1254.007080	15833.166992	2464.101074	8.300162
456.971252	1252.297974	16175.182617	2483.939941	8.253377
457.327393	1248.880249	16764.328125	2530.007568	8.257108
457.683502	1254.824341	17381.115234	2571.171387	8.162739
458.039612	1251.480835	18288.425781	2644.136719	8.174329
458.395630	1253.561157	19156.503906	2700.012207	8.079404
458.751648	1250.440430	19923.234375	2764.953125	8.110799
459.107605	1253.189575	20546.412109	2820.977295	8.126106
459.463562	1249.251587	20684.244141	2844.234131	8.206757
459.819458	1247.988403	20557.482422	2843.342529	8.262019
460.175323	1245.239258	19942.851563	2789.175781	8.257399
460.531158	1241.821411	19233.556641	2728.321533	8.262128
460.886932	1241.152710	18491.943359	2668.879639	8.276299
461.242676	1241.227051	17823.958984	2617.536377	8.299653
461.598419	1245.090698	17335.568359	2575.852295	8.270492
461.954102	1242.638794	16872.513672	2526.218262	8.212346
462.309723	1245.016479	16526.486328	2493.673584	8.171054
462.665344	1243.381836	16213.596680	2474.206299	8.221823
463.020905	1248.359985	16038.390625	2463.952393	8.218999
463.376373	1249.177368	15979.245117	2466.776123	8.266077
463.731873	1261.140015	16013.945313	2468.782227	8.185848
464.087341	1257.722168	16038.836914	2466.404541	8.177207
464.442749	1256.013184	16128.371094	2468.039063	8.149521
464.798126	1251.926636	16220.803711	2462.540771	8.087542
465.153503	1255.938843	16378.102539	2478.738770	8.086143
465.508820	1251.629272	16534.138672	2494.862549	8.135007
465.864105	1251.034912	16631.326172	2512.992432	8.205030
466.219330	1251.703613	16863.375000	2525.846680	8.161477
466.574524	1254.229858	16899.115234	2527.035400	8.135601
466.929657	1252.000854	16774.136719	2528.001221	8.220521
467.284790	1254.006958	16555.611328	2518.044922	8.260819
467.639893	1257.276367	16340.729492	2498.874756	8.231526
467.994934	1253.932739	16188.780273	2468.039063	8.129352
468.349945	1253.932739	16007.481445	2446.268311	8.081687
468.704926	1252.595337	15832.870117	2438.094971	8.130846
469.059875	1251.109253	15664.351563	2446.863037	8.296217
469.414764	1251.257690	15538.557617	2444.782471	8.353746
469.769653	1249.846069	15511.584961	2445.599854	8.384348
470.124451	1254.601440	15592.872070	2439.952881	8.267046
470.479248	1249.846069	15710.791992	2442.701904	8.248809
470.834015	1247.765503	15809.242188	2447.457275	8.238806
471.188721	1248.285645	16055.778320	2464.398193	8.212819
471.543365	1251.257813	16313.385742	2486.020508	8.197797
471.898010	1254.601440	16581.025391	2510.020264	8.191205
472.252625	1254.229858	16805.640625	2536.472168	8.245183
472.607178	1252.818115	17019.037109	2554.378906	8.255377
472.961700	1257.202026	17099.730469	2558.168213	8.211860
473.316193	1250.514771	17141.117188	2562.032227	8.253415
473.670654	1247.245605	17080.562500	2567.530518	8.338651
474.025055	1241.004028	17152.560547	2575.035156	8.384039
474.379456	1248.137085	17210.888672	2582.019531	8.356218
474.733795	1246.056641	17365.363281	2600.149414	8.400440
475.088104	1248.359985	17641.398438	2624.074951	8.392068
475.442383	1246.576782	18000.800781	2654.167480	8.401407
475.796570	1243.158813	18325.056641	2675.046631	8.382486
476.150787	1247.914185	18731.492188	2703.727539	8.326747
476.504944	1245.239258	19086.958984	2731.145264	8.328267
476.859070	1253.263916	19420.427734	2755.367920	8.268236
477.213135	1246.353882	19627.138672	2777.956055	8.332626
477.567200	1251.926636	19891.580078	2798.909424	8.299417
477.921173	1259.728394	20163.232422	2833.608643	8.325865
478.275146	1259.802612	20448.406250	2863.552734	8.357826
478.629089	1255.641724	20718.050781	2894.091064	8.418533
478.983002	1245.239258	21165.947266	2923.366455	8.424034
479.336823	1246.353882	21663.181641	2961.037842	8.398386
479.690643	1251.257813	22345.056641	3013.049805	8.352180
480.044403	1258.019409	23177.767578	3079.625000	8.310340
480.398163	1256.533325	24372.482422	3187.884033	8.355057
480.751862	1255.493164	26012.712891	3321.332031	8.344390
481.105499	1251.183472	28224.111328	3500.252686	8.338247
481.459137	1254.973022	31458.212891	3738.021240	8.221132
481.812744	1250.291992	35694.210938	4094.971436	8.258873
482.166290	1245.982300	40684.382813	4521.766602	8.306077
482.519806	1236.545898	45624.324219	4982.517578	8.439197
482.873291	1238.775024	49761.203125	5374.836426	8.524020
483.226715	1242.267212	52484.769531	5666.177246	8.633283
483.580139	1247.765625	53447.363281	5792.566406	8.706582
483.933502	1251.183472	52700.097656	5730.968750	8.707250
484.286804	1251.629395	50591.238281	5529.162598	8.669573
484.640106	1252.743896	47609.250000	5245.623535	8.613418
484.993347	1249.251587	44690.562500	4989.130371	8.609037
485.346558	1250.366089	42552.425781	4809.541016	8.617427
485.699738	1252.446655	41674.019531	4723.943848	8.588228
486.052887	1256.458984	41904.433594	4740.959473	8.572384
486.405975	1256.756226	42838.640625	4811.992676	8.549965
486.759064	1245.759399	43759.472656	4910.518066	8.620180
487.112061	1238.254761	44210.792969	4960.524414	8.661973
487.464996	1235.357056	43829.167969	4946.778320	8.713522
487.817963	1240.409668	42671.457031	4848.847168	8.709501
488.170868	1249.771851	40835.660156	4689.839355	8.690136
488.523743	1247.765625	38858.167969	4500.367676	8.648145
488.876587	1248.954468	37074.753906	4343.514160	8.637796
489.229401	1241.598511	35983.546875	4251.750488	8.664315
489.582153	1241.598511	35748.972656	4227.750488	8.653663
489.934845	1249.251709	36398.449219	4290.239746	8.651657
490.287537	1249.474609	37667.761719	4393.816895	8.633965
490.640198	1253.115601	38849.847656	4499.847168	8.635675
490.992798	1252.075195	39445.457031	4551.264648	8.638118
491.345337	1248.880249	39107.531250	4526.818848	8.658360
491.697876	1248.211426	37765.175781	4434.832520	8.726413
492.050354	1238.329224	35771.484375	4280.877441	8.810513
492.402832	1238.031860	33188.574219	4069.634766	8.862456
492.755219	1240.112427	30605.365234	3854.825195	8.904105
493.107605	1247.839844	28237.115234	3642.467773	8.872517
493.459930	1255.418823	26426.953125	3486.432373	8.863240
493.812225	1258.539551	25147.531250	3369.851318	8.838011
494.164490	1257.053589	24475.539063	3294.359619	8.774500
494.516724	1247.171265	24195.939453	3273.480469	8.829708
494.868896	1244.050415	24244.681641	3275.263916	8.831120
495.221039	1244.942017	24398.859375	3298.817627	8.870531
495.573120	1251.183472	24589.521484	3316.724609	8.850420
495.925201	1250.960571	24788.798828	3332.476807	8.843277
496.277222	1246.874023	24960.216797	3348.080322	8.860861
496.629211	1247.097046	25012.748047	3363.684326	8.906078
496.981140	1247.914185	24909.093750	3366.656250	8.954508
497.333069	1250.217651	24640.265625	3356.848389	9.006526
497.684967	1250.366089	24275.664063	3319.325439	8.985592
498.036804	1249.920288	23814.320313	3272.217529	8.962336
498.388580	1246.873901	23346.583984	3240.490234	9.021007
498.740326	1246.576782	22934.203125	3204.824951	9.029333
499.092072	1245.313599	22509.193359	3167.302002	9.038748
499.443756	1245.685059	22072.740234	3114.250000	8.971816
499.795410	1241.598511	21679.230469	3083.637451	9.012976
500.147003	1244.644897	21375.257813	3064.541260	9.040442
500.498566	1246.428101	21137.191406	3046.560303	9.050091
500.850098	1248.731445	20931.892578	3022.263428	9.010403
501.201599	1243.010132	20810.853516	3020.628662	9.084387
501.553009	1244.124634	20761.072266	3012.677979	9.061629
501.904449	1247.022583	20777.791016	3007.922607	9.016031
502.255859	1252.075195	20847.189453	3004.876221	8.945092
502.607178	1257.424927	20905.517578	3023.749268	8.989801
502.958405	1260.768433	20941.033203	3041.507568	9.048349
503.309692	1262.180298	20977.740234	3043.587891	9.035542
503.660919	1257.276367	21052.562500	3043.216553	9.022048
504.012115	1259.951294	21065.566406	3039.575439	8.985453
504.363251	1259.208130	21018.533203	3034.746094	8.985824
504.714294	1262.180298	20891.623047	3029.990967	9.005914
505.065369	1251.109253	20835.226563	3024.492188	9.055210
505.416443	1248.211426	20713.962891	3018.919678	9.096532
505.767395	1247.022583	20731.871094	3019.588135	9.097149
506.118317	1249.846069	20650.806641	3022.857422	9.138782
506.469238	1246.353638	20781.580078	3043.811279	9.201110
506.820160	1246.130859	20922.384766	3058.597412	9.211441
507.170929	1250.440430	21206.740234	3081.705322	9.176374
507.521729	1253.041138	21459.146484	3093.890869	9.110364
507.872498	1252.966919	21689.707031	3105.259033	9.063540
508.223236	1250.737671	21954.150391	3122.200439	9.039392
508.573883	1253.784180	22216.212891	3146.794678	9.030492
508.924500	1246.576782	22483.779297	3181.716797	9.112028
509.275116	1243.753296	22638.478516	3195.537109	9.122734
509.625702	1244.496216	22783.146484	3210.471924	9.127665
509.976196	1248.137085	22904.927734	3216.639404	9.089539
510.326660	1247.096924	23105.843750	3244.651367	9.138468
510.677124	1247.765625	23253.781250	3267.016357	9.175903
511.027557	1252.520874	23417.916016	3284.477539	9.167248
511.377869	1258.911011	23517.406250	3295.771484	9.150935
511.728180	1252.149292	23591.708984	3297.554932	9.155980
512.078430	1247.765503	23519.708984	3293.170898	9.183776
512.428650	1237.363159	23424.007813	3282.248291	9.216739
512.778931	1245.090698	23235.279297	3271.325928	9.214269
513.129028	1245.090698	23125.460938	3258.694580	9.202786
513.479126	1251.109253	22990.599609	3235.735107	9.129128
513.829285	1246.799683	22875.353516	3209.431641	9.074264
514.179382	1252.669556	22719.248047	3203.115967	9.085968
514.529297	1259.728394	22721.697266	3207.796875	9.076839
514.879272	1259.579834	22870.451172	3227.858643	9.107818
515.229187	1253.041138	23108.814453	3232.614258	9.057438
515.579163	1244.050659	23495.781250	3258.545898	9.053207
515.928955	1237.586182	23980.087891	3292.279297	9.034595
516.278748	1237.586304	24651.562500	3358.854492	9.059836
516.628540	1239.369385	25376.162109	3433.082764	9.088670
516.978333	1242.564453	26273.443359	3523.360596	9.111930
517.327942	1244.347778	27152.220703	3589.193115	9.050705
517.677612	1242.192871	27840.412109	3656.436768	9.076713
518.027222	1242.861450	28214.599609	3697.229248	9.099775
518.376831	1239.815063	28287.638672	3733.563232	9.219773
518.726379	1248.062744	28048.904297	3711.123779	9.190238
519.075867	1253.709717	27525.367188	3666.913330	9.185577
519.425293	1261.437256	26925.671875	3596.028564	9.096672
519.774658	1256.533325	26296.548828	3533.020264	9.091395
520.124084	1244.273315	25751.244141	3489.552979	9.161800
520.473389	1236.471558	25270.060547	3457.305664	9.240542
520.822693	1234.985474	24932.500000	3439.770264	9.303864
521.171997	1246.799683	24757.072266	3411.981201	9.209513
521.521240	1251.926636	24707.437500	3394.891357	9.136295
521.870361	1251.852173	24823.423828	3410.420654	9.157507
522.219482	1246.056641	24979.015625	3440.810303	9.247704
522.568604	1241.004028	25242.640625	3477.292969	9.317236
522.917664	1245.685181	25703.390625	3496.537842	9.203041
523.266724	1245.685181	26432.005859	3548.921143	9.144789
523.615662	1241.821411	27365.541016	3622.406494	9.112734
523.964600	1242.192871	28414.845703	3721.303467	9.123550
524.313538	1245.982300	29618.845703	3828.076172	9.100575
524.662354	1263.889282	30916.171875	3951.864502	9.064985
525.011169	1265.301025	32143.357422	4074.761719	9.098567
525.359985	1269.610596	33362.441406	4188.667480	9.095667
525.708740	1256.533325	34619.050781	4295.812012	9.109861
526.057434	1256.830566	36221.238281	4428.813965	9.072036
526.406067	1250.588989	38325.347656	4612.044434	9.066696
526.754700	1249.474609	41156.503906	4879.385254	9.095918
527.103333	1254.973022	44524.644531	5200.001465	9.117306
527.451782	1256.904907	47942.566406	5539.861816	9.174031
527.800293	1259.059692	50580.312500	5814.707520	9.236683
528.148743	1252.892456	52030.031250	6018.669434	9.385674
528.497131	1253.784058	51908.769531	6029.814453	9.428550
528.845642	1260.471313	50324.339844	5883.512207	9.422496
529.193909	1251.777954	47517.187500	5584.814941	9.365608
529.542175	1248.062866	44080.832031	5247.034668	9.336244
529.890503	1236.545898	40656.144531	4917.428223	9.337696
530.238770	1242.341431	37739.910156	4645.331543	9.323881
530.586914	1248.434448	35692.203125	4458.460449	9.319613
530.934998	1254.601440	34601.664063	4354.585449	9.296123
531.283142	1254.675659	34591.781250	4336.826660	9.245406
531.631226	1243.827515	35293.050781	4399.018066	9.266557
531.979248	1244.421875	36536.429688	4514.559082	9.265943
532.327148	1245.833740	37745.484375	4624.973145	9.258004
532.675110	1252.669556	38564.074219	4686.495605	9.203154
533.023071	1253.858521	38630.281250	4698.755371	9.216765
533.370850	1245.685181	37865.484375	4634.483887	9.254006
533.718689	1241.969971	36647.738281	4530.459473	9.288005
534.066467	1240.409546	35138.871094	4379.179688	9.259329
534.414246	1246.651001	33713.078125	4244.543457	9.233824
534.761963	1255.344360	32580.255859	4140.222168	9.209533
535.109619	1256.384644	31971.716797	4084.569336	9.207729
535.457153	1256.161621	31776.599609	4057.374268	9.178154
535.804749	1257.350586	31732.240234	4054.179688	9.177487
536.152344	1258.762329	31588.390625	4047.863525	9.195962
536.499817	1259.208252	31202.908203	4034.117920	9.267091
536.847229	1256.087524	30607.966797	3984.854736	9.296738
537.194641	1257.053467	29730.451172	3913.227295	9.328615
537.542114	1257.053467	28811.921875	3835.208984	9.356442
537.889404	1253.635620	28028.177734	3776.287109	9.421828
538.236694	1254.155640	27702.431641	3742.925049	9.409950
538.583984	1252.669556	28020.968750	3752.658936	9.339365
538.931213	1247.988403	28919.140625	3823.840820	9.308801
539.278381	1237.511841	30474.000000	3953.424805	9.289464
539.625488	1236.100220	32484.853516	4121.571777	9.233877
539.972595	1240.558228	34960.992188	4340.765137	9.193852
540.319641	1245.685181	37296.699219	4564.861816	9.206888
540.666687	1246.651001	39018.441406	4751.956543	9.280221
541.013611	1248.508667	39856.574219	4853.230957	9.336707
541.360596	1249.474487	39902.644531	4853.676270	9.324466
541.707458	1249.846069	39131.082031	4780.190918	9.319509
542.054260	1252.297974	37668.285156	4647.932129	9.324570
542.401062	1251.777954	35870.902344	4502.521973	9.390024
542.747864	1254.155640	34007.761719	4347.154785	9.443233
543.094666	1252.149414	32290.998047	4193.348633	9.475864
543.441284	1250.366211	30673.351563	4033.374756	9.458621
543.787903	1249.400269	29389.474609	3891.531006	9.389211
544.134460	1242.267212	28266.462891	3757.488525	9.307294
544.481079	1241.004028	27441.775391	3673.823486	9.285296
544.827637	1239.443726	26856.125000	3629.316406	9.329360
545.174072	1241.969849	26606.320313	3610.963623	9.339856
545.520508	1243.604614	26584.400391	3604.425049	9.316283
545.866943	1243.678955	26516.634766	3587.484131	9.273966
546.213318	1240.632446	26390.841797	3580.202393	9.302387
546.559631	1243.901855	26007.216797	3570.840088	9.396715
546.905823	1246.502441	25430.031250	3529.825195	9.441644
547.252136	1250.440430	24594.572266	3469.639893	9.506454
547.598389	1247.468384	23687.781250	3381.294189	9.508895
547.944458	1253.858398	22803.056641	3298.074951	9.486277
548.290588	1256.682007	21890.099609	3194.422607	9.391273
548.636658	1262.923218	21061.701172	3124.578125	9.402878
548.982727	1250.737671	20414.896484	3064.318359	9.463399
549.328735	1248.731567	19916.250000	3031.179688	9.548394
549.674622	1245.016479	19506.990234	2984.963135	9.527702
550.020569	1248.285767	19210.521484	2961.929443	9.540258
550.366455	1250.291870	19116.751953	2948.852295	9.506977
550.712280	1250.068970	19096.914063	2942.982178	9.485784
551.058044	1250.440552	19143.205078	2945.211182	9.471822
551.403748	1239.220825	19245.740234	2956.802490	9.538666
551.749512	1238.552124	19428.005859	2968.319336	9.509727
552.095154	1233.499512	19562.865234	2973.594727	9.493484
552.440735	1245.908081	19593.404297	2981.694092	9.460615
552.786316	1253.263916	19526.607422	2980.653564	9.453057
553.131897	1255.567383	19333.197266	2957.099609	9.412364
553.477417	1249.103149	19059.464844	2920.691406	9.385482
553.822815	1240.409790	18670.490234	2882.573975	9.421438
554.168213	1242.267212	18350.392578	2862.364014	9.469750
554.513672	1247.765503	18058.310547	2835.317627	9.443788
554.859009	1242.564331	17862.076172	2823.577881	9.512997
555.204285	1238.254883	17642.585938	2805.670654	9.554890
555.549500	1236.174316	17460.025391	2796.605713	9.618132
555.894714	1238.254761	17324.718750	2775.058350	9.553396
556.239990	1239.963745	17217.353516	2765.844482	9.550250
556.585022	1238.477661	17105.677734	2757.745361	9.574895
556.930115	1238.997925	16981.886719	2761.385986	9.670322
557.275146	1249.103027	16863.298828	2745.857178	9.585855
557.620178	1249.251831	16766.781250	2733.299805	9.563687
557.965149	1249.994751	16712.835938	2721.931641	9.519188
558.310059	1245.239258	16609.556641	2715.690186	9.570559
558.654968	1250.143433	16581.693359	2704.693359	9.487299
558.999756	1256.904907	16554.572266	2701.498291	9.443227
559.344604	1252.446655	16627.685547	2700.829346	9.420229
559.689331	1248.954346	16664.242188	2705.659424	9.449743
560.033997	1239.592163	16736.689453	2704.396240	9.452119
560.378723	1243.530396	16828.599609	2713.015381	9.428800
560.723389	1242.713013	16894.804688	2717.919189	9.424978
561.067932	1247.096802	16904.388672	2719.776611	9.405712
561.412476	1247.319824	16856.908203	2721.782959	9.445881
561.757019	1252.892578	16772.353516	2727.578857	9.502174
562.101501	1255.567505	16726.658203	2731.516846	9.540047
562.445862	1244.347656	16654.880859	2720.593994	9.579463
562.790222	1243.084473	16679.177734	2710.191650	9.504395
563.134644	1244.644897	16676.650391	2702.761475	9.448652
563.478943	1258.390869	16772.279297	2705.956299	9.330771
563.823181	1256.310425	16857.503906	2720.073975	9.382382
564.167358	1249.771729	17051.955078	2736.866455	9.410691
564.511536	1249.400269	17311.939453	2766.067383	9.442263
564.855774	1244.347656	17689.025391	2793.336670	9.419394
565.199768	1247.171265	18067.671875	2826.030029	9.386515
565.543823	1241.598511	18376.771484	2846.166016	9.364174
565.887817	1250.737671	18595.072266	2869.645508	9.333929
566.231812	1245.833740	18595.667969	2876.183838	9.396920
566.575745	1243.976196	18464.226563	2879.378906	9.496974
566.919617	1236.025757	18203.498047	2864.072998	9.595107
567.263428	1234.985474	17939.203125	2839.032471	9.602647
567.607239	1231.196045	17720.306641	2812.135010	9.587775
567.950989	1236.620117	17476.521484	2780.705078	9.507970
568.294678	1239.146362	17319.966797	2762.872314	9.475424
568.638367	1242.192871	17198.998047	2752.692627	9.466180
568.981995	1240.706909	17190.826172	2750.760986	9.467353
569.325623	1246.205200	17272.781250	2750.389404	9.385562
569.669128	1254.378540	17411.654297	2759.231689	9.313781
570.012573	1251.480835	17613.240234	2773.200439	9.300465
570.356140	1253.041138	17868.470703	2800.841064	9.315437
570.699524	1250.663452	18145.099609	2821.645752	9.298815
571.042908	1254.452759	18460.882813	2848.914795	9.266665
571.386230	1254.081421	18672.869141	2860.431641	9.221941
571.729492	1256.236206	18823.183594	2866.153076	9.164466
572.072815	1254.453003	18806.984375	2858.500000	9.138551
572.416016	1247.468384	18665.958984	2852.704346	9.215701
572.759094	1237.288940	18455.236328	2845.571289	9.340733
573.102234	1237.957520	18253.800781	2831.528076	9.365216
573.445374	1245.239258	18108.314453	2799.503174	9.216967
573.788391	1243.233154	17957.851563	2790.587158	9.257489
574.131409	1236.917358	17842.312500	2790.512695	9.355968
574.474365	1227.852539	17700.617188	2797.794678	9.530532
574.817261	1242.638794	17538.414063	2785.237549	9.466249
575.160156	1249.846069	17331.333984	2770.376953	9.455163
575.502930	1257.647827	17089.255859	2744.519531	9.391792
575.845703	1250.440552	16891.982422	2713.906982	9.356279
576.188477	1243.530396	16644.701172	2681.287842	9.335378
576.531250	1245.462280	16417.259766	2652.458252	9.273759
576.873901	1239.146362	16091.293945	2628.681641	9.355787
577.216431	1242.787231	15767.855469	2598.514893	9.333710
577.559082	1234.911133	15419.151367	2569.982666	9.412358
577.901611	1239.443726	15113.620117	2544.125244	9.403668
578.244080	1241.524048	14806.674805	2504.670410	9.311702
578.586487	1247.022461	14606.652344	2492.261963	9.320913
578.928955	1255.047241	14425.502930	2496.348633	9.424893
579.271301	1249.697510	14294.655273	2482.156982	9.447784
579.613647	1251.703613	14096.860352	2452.064209	9.344851
579.955872	1243.084595	13948.848633	2408.374268	9.171347
580.298157	1246.279541	13823.277344	2399.755127	9.171310
580.640320	1241.672852	13763.984375	2398.269043	9.236283
580.982483	1244.421997	13722.078125	2391.878906	9.196094
581.324524	1243.901855	13680.023438	2391.581787	9.228601
581.666626	1246.353882	13596.656250	2384.151611	9.212711
582.008728	1250.589111	13518.934570	2375.606445	9.170082
582.350647	1253.784180	13460.235352	2357.551025	9.042488
582.692566	1253.115356	13401.757813	2346.851318	9.002948
583.034424	1242.341431	13347.666992	2338.529541	9.055421
583.376343	1245.685059	13261.030273	2330.430664	9.028002
583.718201	1255.270142	13203.074219	2332.288086	9.014359
584.059937	1270.799316	13102.839844	2324.486572	8.905372
584.401611	1264.260742	13026.381836	2311.483398	8.903349
584.743347	1256.310425	12979.718750	2303.532959	8.932748
585.085022	1251.183594	12983.433594	2301.155273	8.949449
585.426514	1245.239380	12983.062500	2316.833008	9.129407
585.768127	1243.976074	12995.992188	2314.232422	9.107002
586.109619	1235.802856	12970.653320	2309.328369	9.148182
586.451172	1246.353882	12981.725586	2301.898193	8.994554
586.792542	1244.124756	13033.291992	2298.777588	8.945949
587.133850	1244.867676	13102.988281	2303.161621	8.924634
587.475220	1236.917358	13181.897461	2303.458740	8.928783
587.816589	1238.403320	13188.437500	2303.978760	8.916924
588.157776	1245.610718	13264.372070	2312.003662	8.872736
588.498962	1253.041016	13351.084961	2324.783447	8.858808
588.840210	1250.440430	13474.797852	2328.127197	8.815897
589.181335	1253.189697	13558.018555	2328.870117	8.741937
589.522400	1256.607544	13610.995117	2328.127197	8.673191
589.863403	1261.511719	13577.707031	2329.910400	8.674747
590.204407	1252.075195	13489.583008	2325.080811	8.768171
590.545410	1239.889526	13373.597656	2309.997314	8.819298
590.886353	1241.375610	13237.920898	2297.514404	8.803692
591.227112	1241.821411	13146.305664	2284.882813	8.761920
591.567932	1241.821411	13020.437500	2272.623047	8.751467
591.908752	1233.796631	12965.304688	2269.502197	8.828409
592.249512	1235.059692	12949.703125	2263.706299	8.780861
592.590149	1235.951416	13002.382813	2266.827393	8.761161
592.930786	1238.254883	13109.526367	2254.270264	8.558606
593.271423	1239.369385	13215.557617	2269.353760	8.600268
593.612000	1241.747070	13375.010742	2276.709717	8.529961
593.952576	1244.273315	13539.887695	2301.452393	8.598018
594.292969	1238.552124	13734.411133	2301.972656	8.510183
594.633484	1243.158813	13946.471680	2317.278809	8.455432
594.973877	1245.685181	14167.151367	2331.470947	8.402962
595.314209	1250.217651	14418.073242	2350.269287	8.354068
595.654480	1250.217651	14701.909180	2361.935059	8.264518
595.994812	1245.759399	15016.729492	2389.947266	8.308695
596.335022	1246.948242	15290.906250	2407.556885	8.264113
596.675171	1249.400269	15354.954102	2421.971436	8.312833
597.015320	1253.189697	15227.598633	2401.835449	8.219637
597.355408	1252.892578	14913.223633	2379.842041	8.249796
597.695496	1245.313599	14525.958008	2345.068115	8.280882
598.035461	1240.186768	14066.247070	2310.443115	8.344389
598.375366	1249.400269	13602.747070	2266.901611	8.236646
598.715271	1249.251709	13203.593750	2238.963867	8.279102
599.055176	1248.583008	12849.838867	2213.923828	8.321003
599.395081	1245.313721	12594.831055	2192.970459	8.349753
599.734802	1250.737793	12397.781250	2177.961426	8.318113
600.074524	1254.229980	12348.370117	2157.899414	8.145466
600.414246	1248.805786	12290.041992	2156.487793	8.220837
600.753906	1248.805786	12322.437500	2149.131592	8.130357
601.093506	1246.874023	12374.894531	2149.726318	8.113323
601.433044	1245.759399	12546.906250	2159.013916	8.081079
601.772583	1238.403442	12752.575195	2181.899414	8.194215
602.112122	1247.914185	13037.526367	2204.264648	8.111806
602.451538	1245.164917	13384.891602	2228.487061	8.100036
602.790894	1248.805786	13784.937500	2235.620117	7.871761
603.130310	1235.431274	14255.645508	2257.539307	7.850163
603.469604	1236.694458	14660.000977	2283.248047	7.796541
603.808838	1240.558228	15026.016602	2314.232178	7.788453
604.148010	1250.291870	15229.606445	2335.854492	7.765492
604.487305	1258.465210	15318.992188	2336.894775	7.669909
604.826416	1257.945068	15174.473633	2320.102539	7.632345
605.165527	1261.065796	14861.137695	2291.867432	7.579383
605.504456	1258.242310	14408.411133	2263.929443	7.647713
605.843445	1256.756226	13961.333008	2224.549072	7.617671
606.182434	1250.812012	13546.203125	2193.267578	7.665113
606.521423	1253.784180	13192.671875	2155.373291	7.551701
606.860229	1252.446655	12873.690430	2137.837891	7.618730
607.199036	1250.440552	12662.817383	2109.082764	7.523781
607.537903	1247.691284	12586.807617	2100.760742	7.523245
607.876648	1255.567383	12666.979492	2100.834961	7.407213
608.215271	1254.378540	12826.506836	2114.729736	7.434684
608.553955	1249.623169	13076.312500	2119.707764	7.356958
608.892578	1241.375488	13253.598633	2120.450928	7.318175
609.231140	1248.434448	13369.734375	2130.259033	7.275000
609.569641	1255.121582	13346.403320	2128.030029	7.219321
609.908081	1256.236206	13275.666992	2118.890625	7.177166
610.246521	1250.440552	13064.944336	2104.104492	7.225559
610.584961	1245.090820	12767.137695	2089.689697	7.330285
610.923340	1240.038086	12420.293945	2072.897217	7.449375
611.261597	1240.112305	12088.680664	2034.111206	7.318928
611.599854	1239.963745	11815.321289	2010.557251	7.286690
611.938110	1243.604614	11566.555664	1986.260376	7.194220
612.276245	1239.443726	11341.195313	1983.436890	7.364991
612.614319	1238.477783	11140.652344	1956.390625	7.250052
612.952393	1238.403442	10946.796875	1941.307007	7.240163
613.290466	1245.610840	10836.679688	1926.595093	7.100192
613.628479	1247.022583	10715.343750	1916.564331	7.071388
613.966370	1250.366211	10637.920898	1912.849243	7.057035
614.304260	1250.068970	10533.970703	1901.703735	7.018976
614.642151	1259.431152	10454.095703	1894.124878	6.902848
614.979980	1263.592041	10381.353516	1889.592407	6.865724
615.317749	1263.963501	10354.010742	1872.577148	6.695385
615.655396	1258.985229	10324.734375	1876.366577	6.810042
615.993164	1255.715942	10337.143555	1863.140625	6.688647
616.330811	1255.047241	10328.003906	1867.301636	6.748124
616.668396	1257.350708	10320.945313	1859.722778	6.646061
617.005859	1250.812012	10308.239258	1861.208862	6.739185
617.343445	1246.576782	10311.954102	1862.323608	6.792292
617.680908	1238.775024	10338.108398	1857.270874	6.797156
618.018311	1244.124756	10329.787109	1854.298828	6.715791
618.355652	1251.257813	10297.613281	1849.023438	6.607806
618.692993	1259.876831	10207.485352	1844.936523	6.538727
619.030273	1264.260864	10178.135742	1833.642578	6.387589
619.367554	1266.415527	10132.588867	1822.348511	6.270269
619.704712	1255.493042	10157.405273	1829.630249	6.449594
620.041870	1246.428101	10142.618164	1830.373169	6.563990
620.379028	1239.666504	10103.460938	1826.806763	6.624028
620.716064	1242.564453	10060.811523	1812.020508	6.457701
621.053040	1244.124878	10014.891602	1803.252808	6.374904
621.389954	1243.604614	9987.102539	1804.441528	6.414331
621.726929	1242.341431	9977.517578	1795.599609	6.333681
622.063843	1243.604614	9976.477539	1798.051636	6.348965
622.400635	1246.056763	10029.008789	1795.376587	6.254387
622.737427	1251.629395	10037.406250	1802.286743	6.267600
623.074219	1247.839966	10078.495117	1790.918457	6.149923
623.410889	1248.359985	10113.714844	1784.305542	6.045393
623.747559	1246.576660	10176.649414	1783.190918	6.009069
624.084167	1250.068970	10232.971680	1786.906128	5.976211
624.420715	1245.759277	10313.069336	1784.677124	5.943525
624.757324	1246.130981	10398.963867	1782.670898	5.862009
625.093750	1245.908081	10539.469727	1799.314819	5.954732
625.430176	1248.137207	10723.219727	1807.487915	5.903387
625.766602	1247.468384	10911.800781	1821.159546	5.936170
626.102905	1250.143433	11078.387695	1821.382446	5.812218
626.439209	1247.617065	11171.488281	1826.880859	5.837075
626.775452	1242.267212	11248.390625	1828.664429	5.860384
627.111694	1235.877197	11229.592773	1819.525024	5.840148
627.447876	1237.066040	11149.940430	1812.020508	5.800078
627.783997	1247.691284	11008.096680	1791.735840	5.573996
628.120056	1250.812012	10874.054688	1781.630493	5.516005
628.456055	1248.583008	10713.486328	1768.999390	5.498380
628.792053	1241.672729	10564.805664	1765.432617	5.617853
629.128052	1241.747070	10380.238281	1749.234741	5.553298
629.463928	1245.016357	10244.264648	1744.256470	5.547576
629.799744	1240.706787	10109.702148	1728.875610	5.504218
630.135559	1242.267212	10024.106445	1726.943848	5.519079
630.471375	1247.988525	9918.373047	1717.878906	5.419487
630.807068	1249.474609	9825.048828	1710.597290	5.377164
631.142700	1249.474731	9738.412109	1703.984253	5.354139
631.478333	1241.598511	9688.034180	1702.572388	5.457614
631.813965	1241.672729	9666.115234	1706.064819	5.512437
632.149475	1241.375610	9661.210938	1712.603516	5.596641
632.484924	1240.558228	9673.991211	1700.492065	5.453697
632.820435	1238.180542	9671.168945	1695.439453	5.422264
633.155884	1231.344604	9699.179688	1687.934937	5.392055
633.491150	1231.121704	9729.867188	1694.919312	5.457248
633.826477	1238.552002	9745.692383	1688.529297	5.289407
634.161804	1246.874023	9691.972656	1675.897827	5.080152
634.497009	1249.325928	9579.551758	1670.622437	5.057444
634.832153	1248.211426	9493.658203	1664.455200	5.048165
635.167297	1238.031860	9431.913086	1663.638062	5.194196
635.502380	1229.412842	9379.008789	1656.579224	5.241565
635.837463	1237.140259	9272.756836	1649.223267	5.128206
636.172424	1245.239380	9175.791992	1656.876343	5.190520
636.507324	1253.338379	9095.024414	1651.229370	5.074049
636.842224	1251.777954	9032.610352	1644.096313	5.042113
637.177124	1257.573486	8941.440430	1628.418457	4.826280
637.511963	1264.409302	8846.110352	1625.892090	4.767832
637.846741	1255.121582	8757.987305	1623.514526	4.910030
638.181396	1253.412598	8680.711914	1618.164673	4.910965
638.516113	1252.966797	8615.995117	1606.350586	4.799436
638.850769	1256.013306	8553.284180	1607.911011	4.822319
639.185303	1257.573608	8472.665039	1602.264038	4.777354
639.519836	1250.291992	8407.278320	1605.384399	4.961480
639.854370	1249.846069	8356.678711	1601.669434	4.950495
640.188843	1245.387817	8295.303711	1600.034790	5.030513
640.523254	1250.663330	8234.598633	1596.542603	4.952498
640.857605	1251.777954	8160.296387	1588.592285	4.875348
641.191895	1252.521118	8148.705078	1581.607788	4.772011
641.526184	1256.756226	8123.738770	1574.771851	4.631083
641.860413	1259.579712	8088.667969	1577.075195	4.649164
642.194580	1262.997681	8042.303223	1582.202148	4.708513
642.528748	1256.013184	7985.164551	1581.756348	4.840776
642.862793	1251.926636	7968.893066	1571.799805	4.762167
643.196838	1249.846069	7929.289063	1569.570679	4.786696
643.530823	1244.867798	7902.094238	1569.570801	4.877451
643.864746	1249.400269	7865.611816	1571.131226	4.862767
644.198669	1249.400269	7866.279785	1563.849487	4.752228
644.532532	1254.006958	7879.283203	1563.477905	4.671065
644.866333	1245.982300	7898.898926	1567.044556	4.825887
645.200073	1239.369385	7912.347656	1564.443848	4.871505
645.533813	1241.969971	7951.579590	1561.397461	4.760746
645.867554	1240.186646	7966.365723	1558.648071	4.734656
646.201172	1239.517944	7977.511719	1567.415894	4.866404
646.534729	1236.917358	7961.388184	1570.908203	4.966797
646.868225	1239.369385	7975.580078	1571.428101	4.929459
647.201782	1242.638672	7946.453125	1566.821655	4.835799
647.535217	1243.679077	7908.781738	1570.165039	4.898439
647.868591	1249.623169	7859.222168	1571.948364	4.876623
648.201965	1256.756226	7840.943848	1576.926636	4.862717
648.535278	1261.957397	7851.048340	1561.991821	4.553503
648.868591	1268.198853	7884.039063	1557.756470	4.376732
649.201782	1261.065796	7889.091309	1544.604858	4.277881
649.534912	1247.616943	7885.524902	1553.669922	4.610684
649.868103	1238.997925	7873.265137	1555.973267	4.777850
650.201172	1243.233032	7907.964844	1569.199219	4.890912
650.534180	1252.520996	7909.005371	1568.307617	4.744045
650.867188	1251.926636	7913.239746	1571.354004	4.795261
651.200134	1254.304321	7907.369629	1567.787476	4.711860
651.533020	1252.744019	7909.673340	1573.880371	4.824091
651.865845	1254.675781	7889.983887	1572.765625	4.793897
652.198608	1250.217651	7842.578125	1579.304321	4.991940
652.531433	1250.960571	7786.257324	1580.195923	5.037803
652.864136	1246.502441	7739.817871	1582.573608	5.175648
653.196777	1376.903687	7844.732910	1700.120483	4.997300
653.529358	1382.030640	7801.934082	1698.114258	4.923495
653.861938	1380.098633	7721.389160	1692.393188	4.924779
654.194519	1250.663452	7503.608887	1561.546265	4.971782
654.526978	1242.044312	7476.562500	1552.332520	4.976940
654.859375	1238.774902	7474.036621	1546.908203	4.941786
655.191833	1247.616821	7497.292969	1549.434570	4.829334
655.524170	1252.595215	7493.800781	1548.840210	4.746599
655.856445	1264.335083	7501.380371	1548.319946	4.553195
656.188660	1256.756226	7528.351563	1552.332397	4.712934
656.520874	1253.784058	7582.072754	1560.282837	4.843312
656.853088	1239.146362	7659.199219	1574.326050	5.220825
657.185181	1230.973145	7710.021484	1578.412598	5.362507
657.517212	1228.446899	7795.692871	1580.195923	5.356112
657.849243	1239.518066	7928.323730	1586.734497	5.191008
658.181274	1245.610840	8126.265625	1591.935913	5.033316
658.513123	1249.177368	8324.876953	1609.991333	5.099339
658.844971	1246.130859	8490.422852	1618.684937	5.142726
659.176819	1250.737671	8569.110352	1635.625854	5.259204
659.508667	1251.480591	8603.661133	1635.254272	5.219862
659.840393	1259.505371	8549.791016	1631.093384	5.097030
660.172058	1256.756226	8467.760742	1624.406128	5.098456
660.503662	1253.115356	8316.332031	1619.873657	5.192511
660.835266	1254.675659	8165.349121	1619.725098	5.282401
661.166931	1255.864624	7982.861816	1605.161621	5.192465
661.498413	1257.053467	7814.417480	1602.858276	5.273534
661.829773	1251.703735	7614.840332	1592.381470	5.353928
662.161194	1252.075195	7476.488281	1592.753296	5.473257
662.492615	1250.812012	7356.712402	1578.412720	5.365314
662.823975	1254.973022	7326.916504	1580.195923	5.356158
663.155212	1255.567383	7254.917480	1570.165039	5.243862
663.486450	1262.551880	7174.075684	1573.137207	5.253896
663.817627	1260.471313	7050.585449	1567.490234	5.302467
664.148743	1255.047241	6974.201660	1571.502563	5.533254
664.479858	1251.852173	6925.830566	1567.638794	5.565524
664.810913	1251.034790	6910.673340	1568.530396	5.609821
665.141907	1255.493042	6866.611328	1570.908203	5.621253
665.472778	1255.121582	6831.392090	1573.880249	5.716341
665.803711	1246.130981	6800.481934	1574.326050	5.908792
666.134583	1241.375488	6819.206543	1573.880249	5.961184
666.465454	1246.725342	6825.596191	1574.994751	5.884155
666.796143	1252.075195	6830.128906	1578.412598	5.850381
667.126831	1249.177368	6830.351563	1592.307251	6.147987
667.457458	1241.152710	6834.066895	1598.102905	6.382186
667.788147	1246.428101	6838.673340	1593.273315	6.202253
668.118774	1255.195801	6832.432129	1590.449707	6.011112
668.449219	1255.344604	6837.261719	1590.672485	6.007396
668.779663	1249.251587	6835.107422	1598.994507	6.261223
669.110107	1246.799683	6829.534668	1593.198853	6.204829
669.440552	1247.988647	6843.206543	1594.164917	6.187003
669.770874	1250.068970	6817.571777	1592.530273	6.151075
670.101135	1254.973022	6783.689941	1600.777954	6.254705
670.431396	1252.149536	6709.981934	1598.028687	6.337299
670.761597	1256.756226	6684.867188	1594.610718	6.224164
671.091797	1249.177368	6649.275879	1590.375366	6.318366
671.421875	1254.006958	6585.599121	1592.084473	6.341023
671.751892	1250.514771	6526.156250	1590.003906	6.435030
672.081909	1248.137085	6466.714355	1597.731445	6.699036
672.411865	1250.886353	6437.216309	1601.817993	6.766473
672.741821	1254.750122	6386.987793	1614.152344	7.002837
673.071716	1257.573608	6401.848145	1603.675415	6.727903
673.401550	1252.000854	6386.393066	1601.000610	6.797295
673.731262	1249.920410	6396.052246	1600.332031	6.809224
674.060974	1250.960571	6343.000488	1598.102905	6.817353
674.390625	1252.669678	6333.712402	1601.817993	6.871588
674.720276	1247.319702	6294.406250	1593.793335	6.864825
675.049927	1246.205200	6274.493652	1597.880005	6.993927
675.379395	1245.685059	6277.093750	1602.709595	7.095916
675.708923	1249.994629	6281.849121	1608.728149	7.129251
676.038330	1245.982300	6269.589355	1619.279297	7.430856
676.367737	1250.811890	6226.642090	1611.031616	7.239389
676.697083	1250.366089	6201.974121	1614.003540	7.343826
677.026428	1258.613770	6181.986328	1606.944824	7.075050
677.355652	1246.428223	6204.351563	1613.929321	7.412400
677.684875	1239.740967	6242.320313	1625.743530	7.716071
678.013977	1231.641968	6315.062500	1640.901245	8.050864
678.343079	1233.871094	6377.699707	1658.882446	8.262548
678.672180	1234.316772	6427.260254	1655.464722	8.110004
679.001221	1240.706909	6500.373535	1652.046875	7.820647
679.330139	1243.158813	6580.174316	1657.173706	7.757423
679.659058	1251.777954	6663.244629	1677.458374	7.866267
679.987976	1248.211304	6733.089844	1694.399292	8.134874
680.316772	1254.006958	6768.605957	1694.324829	7.984585
680.645630	1248.880127	6786.736328	1689.792480	7.961787
680.974304	1259.208252	6756.123535	1690.461304	7.845365
681.302979	1254.452881	6703.294434	1701.309448	8.200946
681.631653	1251.480835	6637.610840	1703.315552	8.388857
681.960266	1243.679077	6569.697754	1715.798462	8.864396
682.288757	1245.090698	6517.760254	1701.829468	8.662382
682.617249	1251.703613	6463.667969	1696.108032	8.526621
682.945679	1252.298096	6403.557129	1681.321899	8.328524
683.274109	1252.446655	6324.498535	1687.414673	8.575780
683.602478	1251.852173	6230.431641	1690.238281	8.805446
683.930725	1251.926636	6108.649902	1681.842163	8.851967
684.259033	1255.641724	5999.127441	1674.932007	8.839286
684.587280	1256.087402	5917.394531	1665.124023	8.775148
684.915344	1253.189575	5884.255371	1674.114624	9.089161
685.243469	1254.155640	5866.645996	1668.096069	8.974338
685.571533	1253.264038	5855.945801	1661.185913	8.862700
685.899536	1258.688110	5848.589844	1661.037231	8.765964
686.227539	1255.715942	5835.438965	1657.768188	8.778964
686.555420	1249.697388	5848.664063	1668.096191	9.097670
686.883301	1246.725342	5864.193848	1662.077515	8.995235
687.211121	1242.935913	5893.691406	1665.792603	9.092216
687.538940	1244.719238	5899.710449	1665.198364	9.032866
687.866638	1243.530396	5907.289063	1666.535767	9.070052
688.194336	1241.524170	5883.512207	1675.897949	9.357494
688.521973	1238.849243	5841.531250	1682.213745	9.632742
688.849609	1244.867798	5784.838379	1684.442749	9.682330
689.177063	1245.165039	5743.897949	1682.287964	9.716578
689.504578	1251.480713	5688.170410	1672.554199	9.490713
689.832031	1244.719116	5610.152344	1664.826782	9.623505
690.159485	1253.264038	5550.264160	1661.854492	9.508738
690.486816	1250.886230	5490.822266	1663.935181	9.741867
690.814087	1247.319824	5437.546875	1665.941406	9.990427
691.141296	1242.787231	5380.333984	1667.947632	10.275663
691.468506	1241.821289	5369.857910	1666.089966	10.277736
691.795715	1243.678955	5351.653809	1664.455200	10.242912
692.122803	1242.935913	5317.177246	1649.817749	9.986690
692.449829	1241.152710	5267.988770	1646.548340	10.067349
692.776855	1244.644897	5238.044434	1646.919922	10.073499
693.103821	1243.084473	5201.338867	1659.625610	10.523355
693.430664	1248.508423	5172.360840	1661.706055	10.530407
693.757568	1249.177368	5149.029785	1664.158081	10.640933
694.084351	1258.390991	5142.639648	1662.077515	10.392912
694.411133	1266.787109	5123.989746	1665.124023	10.327093
694.737854	1267.753052	5118.640137	1666.312866	10.349818
695.064575	1265.375366	5147.023926	1669.359009	10.407528
695.391174	1259.431152	5149.995605	1674.857422	10.677789
695.717773	1254.675781	5168.051758	1683.996704	10.970602
696.044250	1258.836670	5179.642578	1691.575684	11.036991
696.370789	1255.938843	5240.645020	1707.773804	11.339230
696.697205	1258.539429	5318.588379	1719.365112	11.350250
697.023621	1257.499146	5429.076660	1732.739380	11.392338
697.349915	1254.081421	5594.474609	1743.513306	11.276211
697.676208	1255.344482	5776.813965	1766.026978	11.294613
698.002380	1245.462280	5982.111816	1792.924683	11.558010
698.328674	1244.719116	6178.196777	1820.639648	11.673723
698.654724	1242.564453	6351.396973	1837.208984	11.639539
698.980896	1242.935913	6455.939941	1848.428711	11.615046
699.306946	1251.109253	6440.856934	1858.459595	11.702888
699.632935	1249.177368	6352.882813	1855.710449	11.884171
699.958862	1250.663452	6188.599121	1839.809692	11.931024
700.284729	1244.570435	6020.451660	1818.410645	12.015378
700.610596	1246.205200	5830.385254	1803.327148	12.153143
700.936340	1245.610718	5654.139160	1793.519165	12.428375
701.262146	1238.254761	5461.993652	1769.742188	12.583341
701.587830	1234.465454	5310.712891	1742.101563	12.453515
701.913513	1236.397339	5162.107422	1730.361816	12.582807
702.239075	1243.827515	5068.634277	1719.067749	12.425209
702.564697	1252.669556	4970.108887	1721.445435	12.610182
702.890137	1249.400269	4895.955078	1706.139160	12.525217
703.215698	1249.474487	4832.648926	1704.355835	12.694926
703.541016	1244.421997	4784.724121	1690.461304	12.598905
703.866455	1243.381714	4749.950195	1688.009155	12.679845
704.191711	1240.483887	4720.303223	1678.201172	12.578736
704.517029	1239.592285	4684.341309	1675.674927	12.659345
704.842163	1236.025757	4655.065430	1668.021606	12.635006
705.167419	1241.375488	4617.914063	1671.736816	12.745636
705.492493	1241.375610	4584.849121	1675.080444	12.971684
705.817566	1246.428223	4557.060059	1678.498413	13.050989
706.142578	1245.610840	4548.664063	1675.600586	13.017948
706.467590	1252.966675	4571.326660	1673.817383	12.682491
706.792480	1253.709839	4566.645508	1671.736938	12.618027
707.117371	1248.657227	4571.995117	1678.275513	12.927313
707.442200	1245.462280	4564.713379	1677.235352	13.008148
707.766907	1246.056641	4575.115723	1686.151733	13.219804
708.091675	1254.229980	4570.062988	1686.820313	13.046204
708.416321	1256.013184	4553.791016	1694.027710	13.282111
708.741028	1250.811890	4555.945313	1695.216675	13.445896
709.065552	1250.812012	4560.700684	1706.139038	13.756566
709.390137	1245.462280	4572.960449	1718.621948	14.219683
709.714600	1254.601440	4588.490234	1720.850952	13.985155
710.039063	1248.359985	4623.932617	1716.764282	13.876291
710.363403	1250.812012	4686.198242	1712.677734	13.444361
710.687744	1246.056519	4749.504395	1722.262695	13.592502
711.012085	1248.211304	4807.980469	1729.990234	13.533994
711.336304	1245.016479	4832.872070	1745.073608	13.937493
711.660461	1239.889526	4841.044922	1751.612305	14.209962
711.984619	1244.644897	4821.800781	1761.717407	14.454850
712.308716	1244.347656	4794.531738	1755.773438	14.405613
712.632751	1250.143188	4752.253418	1753.915649	14.384826
712.956726	1248.359985	4702.396973	1735.117188	14.092414
713.280701	1251.183594	4651.127441	1726.943970	13.993183
713.604553	1252.818237	4608.031738	1718.027710	13.865273
713.928467	1250.589233	4584.998047	1723.303101	14.176843
714.252258	1248.657227	4566.942383	1721.817017	14.259166
714.575989	1240.558228	4556.465820	1724.863281	14.605505
714.899719	1238.997925	4547.475098	1720.999634	14.568688
715.223267	1244.793457	4561.815430	1723.674438	14.437076
715.546936	1249.920288	4593.097168	1714.832397	13.906298
715.870422	1250.440552	4591.016113	1717.284546	13.974957
716.193970	1249.474487	4572.664063	1711.488770	13.902737
716.517395	1255.567383	4537.519043	1723.674438	14.263070
716.840820	1259.208252	4507.203613	1723.674438	14.300088
717.164124	1253.264038	4454.894043	1718.696289	14.537354
717.487488	1255.047241	4378.956543	1697.297241	14.156941
717.810730	1254.898560	4319.886230	1692.393066	14.273940
718.133972	1251.852173	4259.626465	1688.232056	14.508398
718.457092	1246.725464	4209.917969	1686.969116	14.857073
718.780212	1240.929810	4150.029785	1674.634766	14.908561
719.103210	1246.725220	4096.457520	1671.588379	14.908879
719.426208	1249.548950	4056.333984	1673.445923	15.102580
719.749207	1250.886353	4018.662354	1667.353149	15.046984
720.072083	1250.812012	3985.671875	1664.380981	15.122127
720.394958	1249.177368	3943.616943	1661.780396	15.313130
720.717773	1250.514771	3887.815430	1662.449219	15.619548
721.040527	1239.517944	3869.833984	1660.888672	16.019777
721.363281	1240.335327	3846.948975	1655.241699	15.917447
721.685913	1238.180542	3847.171875	1652.492554	15.880161
722.008545	1249.103027	3805.042236	1649.966187	15.683596
722.331055	1246.874023	3782.008545	1642.238770	15.595415
722.653503	1247.988403	3756.596924	1643.278931	15.757362
722.976013	1242.787231	3762.094971	1649.446167	16.141695
723.298401	1246.428101	3763.507080	1654.498657	16.212067
723.620789	1244.867676	3759.494873	1655.538696	16.331289
723.943115	1245.462036	3740.770508	1648.777344	16.162943
724.265381	1241.301147	3727.470459	1646.473999	16.297073
724.587585	1243.158813	3727.767578	1644.170532	16.139833
724.909790	1250.217651	3725.910156	1640.083984	15.747769
725.231873	1253.041016	3741.513672	1644.170776	15.717664
725.553894	1254.452759	3765.216064	1653.532837	15.894772
725.875916	1294.427734	3834.466064	1689.718262	15.562385
726.197937	1290.563965	3843.307861	1699.154663	16.005941
726.519775	1295.616455	3846.949219	1702.572632	15.950729
726.841675	1251.777954	3823.395264	1674.411743	16.434553
727.163513	1255.790161	3845.166016	1680.207520	16.390720
727.485291	1249.028687	3885.586670	1679.687378	16.334126
727.806946	1253.858398	3926.527344	1694.102051	16.472061
728.128662	1256.904663	3941.759033	1694.919312	16.314280
728.450256	1261.660156	3935.666748	1698.634399	16.341555
728.771790	1256.087402	3929.053711	1697.148438	16.500809
729.093323	1255.715942	3916.347656	1691.650024	16.384607
729.414795	1253.932739	3903.641846	1695.959595	16.682091
729.736145	1253.858398	3878.082031	1687.117554	16.509995
730.057495	1250.143188	3879.493896	1687.266113	16.624748
730.378845	1239.443726	3890.119141	1682.882446	16.729273
730.700134	1236.322876	3904.236572	1688.901001	16.963747
731.021301	1230.898804	3930.019531	1701.606812	17.439310
731.342468	1245.462158	3963.752930	1714.238159	17.245249
731.663574	1247.765625	3989.759033	1721.445435	17.275017
731.984680	1248.657227	3991.616455	1715.798462	17.030558
732.305664	1236.248657	3985.895264	1705.693359	17.072910
732.626648	1240.706909	3971.331787	1703.166992	16.936052
732.947571	1240.706787	3972.074951	1705.321777	17.010340
733.268433	1238.923462	3948.000977	1701.681030	17.081739
733.589233	1237.363159	3913.747070	1702.052368	17.362577
733.909973	1241.672729	3880.310791	1702.126587	17.450436
734.230713	1250.143188	3837.884033	1700.863647	17.417528
734.551331	1250.960571	3807.197021	1694.473511	17.350233
734.871948	1244.793335	3761.872314	1681.321899	17.342663
735.192505	1244.942017	3729.996826	1673.000000	17.225294
735.513062	1244.867798	3704.956299	1661.111694	16.919876
735.833435	1250.217651	3673.080811	1650.486328	16.520481
736.153931	1248.657227	3627.458984	1639.712524	16.439171
736.474304	1244.867798	3593.651123	1636.368774	16.668247
736.794617	1240.855469	3570.096924	1639.638184	17.120712
737.114807	1243.381714	3569.799561	1641.495728	17.112747
737.434998	1248.582886	3570.542969	1638.597778	16.796797
737.755188	1251.777954	3590.901611	1635.848633	16.419426
738.075256	1251.480591	3612.821289	1644.467896	16.642550
738.395325	1241.375488	3629.762451	1657.990845	17.443378
738.715271	1238.106201	3639.347656	1668.764771	17.934830
739.035278	1237.065918	3649.600830	1671.439819	18.004875
739.355164	1243.604614	3655.991211	1669.730835	17.664093
739.675049	1245.759399	3637.118164	1673.520142	17.887768
739.994873	1242.490112	3610.443604	1675.674927	18.293636
740.314636	1245.536499	3587.632568	1674.411743	18.311598
740.634277	1242.861694	3562.666748	1660.740112	18.013514
740.953979	1248.657227	3549.069580	1646.473999	17.293282
741.273499	1243.901855	3520.240234	1644.839478	17.613270
741.593140	1247.616943	3498.915039	1648.405884	17.802570
741.912598	1242.564331	3445.268555	1647.588745	18.387600
742.232117	1243.753296	3391.399170	1635.774414	18.253527
742.551453	1238.477661	3365.393311	1636.294556	18.703936
742.870850	1247.022583	3359.597656	1634.511230	18.342005
743.190063	1249.251587	3351.275391	1631.464844	18.183107
743.509338	1254.750000	3329.876221	1618.907593	17.548697
743.828552	1245.759399	3308.774414	1616.307007	17.961458
744.147705	1241.449829	3286.854736	1618.610474	18.439413
744.466797	1238.254883	3270.062744	1618.759155	18.727375
744.785828	1245.016357	3244.577148	1614.820923	18.494289
745.104858	1249.400269	3229.419189	1610.214355	18.222759
745.423706	1247.245483	3205.493896	1606.127563	18.326689
745.742615	1245.387939	3189.072998	1604.418823	18.471659
746.061401	1247.914307	3201.555908	1610.288696	18.548662
746.380249	1253.784058	3194.942627	1609.545532	18.327276
746.698975	1258.019409	3193.679688	1610.140015	18.191240
747.017639	1256.013184	3158.980225	1602.932617	18.230450
747.336304	1258.985352	3143.673828	1601.669556	18.182539
747.654907	1253.932739	3131.042236	1604.492798	18.675526
747.973389	1252.669556	3133.494141	1604.344360	18.697906
748.291931	1251.926514	3138.026611	1611.402954	19.059244
748.610352	1250.143311	3146.868896	1607.687988	18.850628
748.928711	1251.926392	3164.478516	1609.619751	18.702412
749.247070	1256.681763	3179.859375	1611.700317	18.459999
749.565308	1256.756226	3191.673828	1617.867310	18.662867
749.883545	1260.842773	3188.181396	1622.251343	18.751690
750.201782	1255.121460	3177.035889	1614.895386	18.719561
750.519836	1259.282593	3175.029541	1616.752930	18.659580
750.837952	1251.852173	3160.986328	1607.836548	18.646378
751.155884	1240.929810	3146.348877	1604.864380	19.099976
751.473877	1239.220825	3122.274658	1599.811890	19.149271
751.791809	1239.740845	3112.243896	1595.799438	19.015114
752.109619	1252.520996	3106.373779	1593.941895	18.416828
752.427490	1244.867798	3107.711182	1589.409546	18.495476
752.745300	1246.205200	3108.677490	1586.883301	18.291714
753.062988	1241.598511	3111.129639	1587.923462	18.524696
753.380615	1244.199097	3113.952881	1591.712891	18.586073
753.698303	1251.109131	3100.801514	1600.926392	18.912186
754.015808	1252.149414	3106.373779	1603.229858	18.934086
754.333374	1253.561157	3098.126221	1594.164673	18.465248
754.650757	1245.536499	3108.900391	1594.462036	18.725571
754.968262	1250.663330	3093.147705	1599.366211	18.925690
755.285583	1257.499146	3085.048828	1610.214233	19.299891
755.602905	1255.938843	3072.343018	1612.963379	19.655567
755.920105	1250.217529	3067.884766	1606.573364	19.605120
756.237305	1244.793457	3080.887939	1599.366089	19.311241
756.554443	1252.743896	3097.308838	1595.428101	18.578051
756.871582	1254.824341	3116.330811	1602.932617	18.700354
757.188599	1256.904907	3107.117188	1609.173950	19.039385
757.505615	1257.573608	3104.962158	1613.780762	19.281658
757.822510	1252.298096	3131.785400	1618.982056	19.509787
758.139465	1256.533203	3175.252686	1627.378052	19.327726
758.456238	1256.161743	3204.156250	1625.446289	18.957165
758.773010	1258.167969	3216.787842	1631.687866	19.070566
759.089783	1251.555054	3222.954346	1637.409058	19.572596
759.406433	1250.886353	3239.821289	1645.582397	19.844593
759.723145	1249.920288	3241.456299	1635.031250	19.337383
760.039673	1250.291870	3235.437500	1634.659790	19.362204
760.356201	1243.381714	3235.214844	1635.105591	19.666500
760.672668	1251.406372	3226.075439	1641.198364	19.739611
760.989136	1253.784058	3221.914795	1637.557617	19.499393
761.305481	1257.350708	3205.122314	1637.929199	19.539175
761.621826	1251.332153	3210.769287	1641.867188	19.930981
761.938049	1252.669556	3233.802979	1650.634888	20.087761
762.254333	1251.480713	3281.654053	1658.734009	20.060026
762.570496	1248.657227	3362.495361	1663.638062	19.631628
762.886597	1250.366211	3481.973877	1679.092896	19.211561
763.202637	1247.839844	3671.891846	1714.832520	19.264961
763.518677	1249.994629	3906.019531	1764.466797	19.370005
763.834656	1248.285645	4129.076660	1814.918335	19.669344
764.150574	1251.257813	4294.177246	1839.809692	19.341684
764.466370	1253.264038	4327.019043	1845.456665	19.266098
764.782288	1241.746948	4250.264160	1828.887085	19.515932
765.097961	1242.415649	4084.494873	1805.258789	19.803923
765.413696	1234.316772	3894.502686	1768.033203	20.063124
765.729309	1237.511841	3712.684326	1731.847656	19.971773
766.044861	1241.821411	3557.019775	1706.510620	20.071249
766.360474	1247.617065	3436.352295	1690.015503	20.212513
766.675903	1250.143311	3356.551514	1671.736816	20.014805
766.991394	1249.548828	3302.012939	1654.275757	19.719074
767.306763	1250.291870	3246.954346	1644.765015	19.756626
767.622131	1252.446533	3202.670166	1649.743164	20.371849
767.937378	1246.948120	3140.032959	1639.860962	20.755163
768.252625	1249.846069	3109.271484	1630.721680	20.483511
768.567810	1250.143188	3075.315186	1614.300781	19.951960
768.882996	1248.954346	3049.458008	1614.672363	20.311985
769.197998	1244.273315	3023.971924	1605.013062	20.269711
769.513062	1244.273315	2981.545166	1605.979004	20.820328
769.828064	1249.177246	2951.601318	1594.016235	20.255764
770.142944	1255.418823	2920.765625	1599.737427	20.675489
770.457825	1254.006958	2891.638916	1594.387695	20.784935
770.772705	1246.799683	2855.379150	1586.362915	21.109509
771.087402	1244.942017	2822.017578	1577.298218	21.074209
771.402100	1245.610840	2807.602783	1561.174438	20.202639
771.716736	1255.493042	2812.952393	1569.347778	20.151712
772.031372	1260.471313	2811.912109	1564.518066	19.597702
772.345947	1263.740723	2820.010986	1562.809082	19.216993
772.660461	1254.452759	2802.624268	1559.985474	19.735069
772.974854	1242.787231	2789.844482	1557.682251	20.354452
773.289246	1242.861694	2768.890869	1564.295288	21.063398
773.603638	1248.137085	2761.906250	1555.155884	20.281744
773.917908	1245.908081	2756.556641	1550.994995	20.195757
774.232178	1246.576782	2745.485596	1543.118774	19.783857
774.546265	1241.598511	2742.810547	1536.208618	19.624817
774.860474	1247.765625	2727.429932	1531.676147	19.187496
775.174561	1247.394165	2722.674561	1530.933228	19.219334
775.488586	1251.183594	2703.430176	1535.019897	19.544636
775.802551	1244.867798	2698.526123	1541.781616	20.425282
776.116516	1247.022583	2678.835938	1539.255249	20.409969
776.430359	1249.474609	2691.244385	1536.580200	19.913414
776.744202	1252.595337	2689.238525	1536.357422	19.751743
777.057922	1252.595337	2689.981445	1535.985840	19.715685
777.371704	1250.588989	2667.764893	1533.088257	19.933960
777.685303	1261.957275	2637.821045	1525.806519	19.176989
777.998962	1254.526978	2629.796387	1522.462891	19.482431
778.312500	1256.236206	2609.437256	1523.874634	19.778172
778.626038	1248.211426	2624.594971	1518.673340	19.650185
778.939453	1250.960571	2630.539307	1521.274048	19.593914
779.252869	1251.555054	2642.576172	1524.320313	19.608995
779.566223	1254.898560	2641.981689	1527.292358	19.637886
779.879578	1255.047241	2637.077881	1524.320313	19.483871
780.192749	1251.629395	2632.991211	1522.462524	19.606241
780.505920	1254.824341	2620.582764	1519.341919	19.367817
780.819031	1255.790405	2607.654053	1529.372925	20.237434
781.132141	1258.093628	2587.815186	1531.676270	20.574430
781.445190	1254.973022	2581.945068	1537.620483	21.300182
781.758118	1257.870728	2580.087646	1524.246094	20.146116
782.071045	1255.864624	2577.932861	1520.530884	20.019108
782.383911	1257.796509	2567.753174	1514.661011	19.608625
782.696838	1254.527222	2557.871338	1517.855957	20.204084
783.009583	1257.499268	2535.654541	1512.654663	19.962786
783.322266	1253.635376	2524.955078	1511.094360	20.251318
783.634888	1254.972900	2515.741455	1508.939575	20.143799
783.947510	1253.561157	2531.493896	1510.500000	20.105820
784.260132	1254.081421	2530.899414	1508.493774	19.925499
784.572571	1247.839844	2512.546387	1503.515625	20.216213
784.885010	1243.753296	2492.633301	1503.218384	20.775822
785.197449	1245.685181	2482.676758	1503.589844	20.849346
785.509766	1245.462280	2478.738525	1508.419434	21.321836
785.822083	1237.511841	2470.862549	1504.184204	21.621778
786.134277	1230.230103	2455.853516	1506.933472	22.576540
786.446533	1233.053589	2453.550049	1504.852905	22.269569
786.758606	1242.415771	2463.952637	1511.317383	22.013386
787.070740	1242.192871	2476.881104	1513.100586	21.941387
787.382690	1239.072266	2487.803711	1510.054199	21.700577
787.694641	1233.127930	2513.958252	1510.054077	21.620831
788.006653	1234.168213	2558.688477	1500.246094	20.088623
788.318481	1233.276611	2607.282227	1515.924194	20.571064
788.630310	1244.050415	2638.415039	1520.530884	19.828419
788.942017	1244.273438	2653.647217	1540.518188	21.019602
789.253784	1251.926514	2658.922852	1539.849609	20.463671
789.565430	1246.279419	2639.530029	1540.369751	21.108215
789.877014	1248.954346	2609.957275	1532.790649	20.854937
790.188538	1249.028687	2581.276611	1526.177734	20.803114
790.500061	1250.960571	2544.496582	1517.038574	20.569818
790.811462	1246.651001	2523.246094	1514.586548	20.988295
791.122925	1244.719238	2486.986328	1515.552734	21.801552
791.434204	1243.084473	2465.364502	1512.803345	22.066864
791.745483	1251.035034	2442.776367	1505.075806	21.316771
792.056702	1249.400269	2436.683594	1489.620972	20.232803
792.367920	1247.394165	2430.590576	1479.812988	19.643301
792.678955	1246.651123	2417.290527	1474.686157	19.479528
792.990112	1246.279541	2409.860107	1474.760376	19.636013
793.301086	1250.588989	2409.265869	1478.624023	19.680641
793.612122	1249.994629	2408.448486	1487.540405	20.505415
793.922974	1249.771851	2388.163818	1493.930542	21.447681
794.233826	1245.016479	2372.931885	1494.599243	22.127790
794.544556	1237.140381	2363.569580	1490.289673	22.473608
794.855286	1232.830811	2369.811279	1486.797485	22.336943
795.166016	1237.214722	2379.916260	1484.939819	21.678898
795.476624	1248.137085	2385.414551	1481.447632	20.514832
795.787292	1256.236206	2412.683838	1495.119507	20.656647
796.097778	1253.486938	2429.996094	1501.955200	21.119110
796.408264	1244.570679	2462.243408	1508.567993	21.680481
796.718689	1238.626343	2481.636719	1500.394897	21.059242
797.029053	1239.889526	2493.896484	1505.521606	21.182665
797.339355	1250.143188	2491.072998	1504.109985	20.465847
797.649658	1257.202026	2467.593506	1499.800415	20.042969
797.959839	1261.883301	2454.664795	1497.942871	19.790680
798.270020	1261.808838	2432.151123	1496.753906	20.074902
798.580078	1260.768555	2420.336914	1502.029419	20.806093
798.890137	1251.703735	2404.287354	1502.401001	21.750896
799.200195	1248.880249	2398.268799	1503.069702	22.115189
799.510071	1243.381714	2393.067871	1497.051270	22.064243
799.820007	1251.257813	2391.284668	1488.432129	20.804274
800.129883	1250.737671	2364.684326	1481.298950	20.697695
800.439575	1258.688110	2351.235107	1478.995728	20.164589
800.749329	1261.808716	2332.510986	1473.200073	19.743244
801.058960	1256.310425	2340.833008	1469.410645	19.649220
801.368591	1259.133911	2310.666016	1471.268188	20.173828
801.678162	1251.852173	2299.372070	1473.125610	21.123554
801.987671	1259.728394	2283.396729	1477.063843	21.231041
802.297119	1246.948242	2286.666260	1465.695435	21.039089
802.606506	1249.920410	2272.623291	1463.020508	20.836950
802.915894	1249.920410	2264.895752	1464.655273	21.156658
803.225159	1259.728394	2263.558105	1469.410645	20.888229
803.534424	1258.762329	2262.889404	1465.992798	20.637873
803.843628	1254.824341	2259.099854	1458.190918	20.250078
804.152771	1245.685181	2259.025635	1458.636719	21.014807
804.461792	1241.672729	2261.997803	1463.837891	21.773958
804.770874	1240.112427	2272.474365	1468.816284	22.153458
805.079773	1241.747070	2281.910889	1468.296021	21.780123
805.388733	1243.827515	2300.486328	1465.472656	20.976036
805.697571	1245.090698	2314.529785	1459.751343	20.072266
806.006470	1251.852173	2321.514160	1463.540649	19.790222
806.315125	1257.127686	2322.034180	1465.323853	19.550652
806.623901	1250.663330	2306.653564	1478.698364	21.594427
806.932495	1245.536499	2298.183350	1471.713989	21.486549
807.241150	1238.849243	2289.712646	1466.066895	21.621996
807.549622	1249.251587	2283.173828	1456.110352	20.007187
807.858154	1257.202148	2275.074951	1460.568481	19.979544
808.166565	1262.328979	2264.078125	1469.113281	20.642324
808.474915	1258.093628	2248.325928	1466.735718	21.070015
808.783264	1252.966797	2235.174561	1460.568726	21.136253
809.091492	1248.582886	2228.264404	1455.293091	21.099735
809.399719	1244.570557	2230.270508	1453.955566	21.242266
809.707825	1242.267212	2216.227295	1448.308594	21.155012
810.015930	1244.496216	2200.772217	1450.983398	21.592844
810.323975	1250.440308	2189.626953	1449.423218	21.186728
810.632080	1250.737671	2189.106689	1446.451172	20.856773
810.939880	1251.555054	2191.484619	1437.534790	19.786560
811.247864	1244.942017	2186.283203	1429.138550	19.567457
811.555664	1241.301147	2175.881104	1435.156860	20.742550
811.863464	1249.548706	2157.379395	1433.225098	20.232450
812.171143	1262.105957	2143.261963	1441.844360	20.398024
812.478882	1263.889160	2132.339600	1438.574829	20.114639
812.786438	1248.731567	2131.596436	1436.717407	21.292707
813.094055	1242.192871	2128.772705	1423.194336	20.415699
813.401489	1244.644897	2142.072998	1419.256348	19.456873
813.708984	1251.257935	2136.128906	1419.627563	19.027592
814.016357	1253.338257	2141.478760	1422.599976	19.057989
814.323730	1256.756226	2120.450928	1424.234375	19.390898
814.630981	1257.573364	2116.661377	1423.194336	19.278696
814.938232	1253.412476	2104.475830	1427.132324	20.412094
815.245361	1252.892456	2106.110596	1435.751587	21.431698
815.552490	1251.629395	2103.584229	1434.711304	21.489626
815.859619	1258.390991	2110.940430	1434.414063	20.646669
816.166565	1252.000854	2116.958984	1431.962036	20.805767
816.473572	1248.359985	2116.438721	1436.940430	21.723886
816.780457	1239.443726	2115.175537	1442.067261	23.137625
817.087341	1242.787231	2123.868896	1435.751465	21.900833
817.394043	1247.839844	2137.912354	1439.466675	21.529350
817.700806	1245.982300	2147.348633	1445.708008	22.158106
818.007507	1244.942139	2151.509521	1449.051636	22.514542
818.314209	1238.626465	2153.812988	1452.543945	23.374195
818.620667	1243.084595	2175.360840	1452.766724	22.491417
818.927246	1241.970093	2194.976807	1463.540649	23.249632
819.233704	1255.270142	2232.945313	1464.803833	21.431831
819.540161	1251.406494	2278.864258	1470.599243	21.333504
819.846497	1250.217651	2349.006104	1483.305054	21.213129
820.152832	1240.781250	2439.061279	1502.178101	21.814337
820.458984	1243.753296	2510.837402	1517.707397	21.620831
820.765259	1247.096802	2609.734375	1529.075562	20.693600
821.071350	1241.969971	2707.293701	1553.075562	21.231184
821.377502	1243.530396	2891.044189	1600.034790	21.638933
821.683472	1240.781128	3240.416016	1676.938110	21.811831
821.989441	1241.524292	3940.496094	1822.571411	21.528463
822.295349	1242.044312	5053.253906	2035.300171	20.813757
822.601196	1243.456055	6430.974609	2326.121094	20.870577
822.907043	1240.706909	7688.103027	2582.836914	20.816622
823.212769	1242.935913	8437.000000	2755.070557	21.019199
823.518494	1239.517944	8427.934570	2758.785889	21.134947
823.824097	1248.137085	7747.173340	2641.387451	21.437799
824.129700	1244.719116	6702.699219	2428.212891	21.683733
824.435242	1250.440430	5648.864746	2212.957764	21.883230
824.740723	1241.895630	4797.206543	2023.040039	21.971197
825.046082	1246.056641	4177.968262	1902.595581	22.392862
825.351501	1241.449829	3727.024658	1812.317749	22.967241
825.656799	1248.954468	3429.293701	1749.754761	22.968916
825.962036	1243.827515	3235.883545	1703.092773	23.054836
826.267212	1242.861694	3167.079102	1675.377808	22.477507
826.572449	1241.078247	3192.490967	1681.024902	22.545034
826.877502	1235.728638	3324.749268	1701.235229	22.283485
827.182495	1239.220825	3580.796631	1757.185059	22.120329
827.487488	1241.895630	3909.065674	1825.915039	21.896595
827.792419	1245.536621	4183.094238	1881.790649	21.659286
828.097290	1246.056641	4293.211426	1908.316772	21.733721
828.402100	1239.072144	4178.190918	1885.877319	22.006773
828.706848	1240.855347	3902.676514	1824.726196	21.935013
829.011597	1238.551880	3526.406982	1746.336792	22.194803
829.316223	1244.347534	3162.621094	1669.582031	22.167562
829.620789	1243.901855	2848.692139	1614.746704	23.108618
829.925354	1244.421997	2626.749756	1568.010376	23.408947
830.229797	1242.415771	2472.645752	1527.515259	23.174486
830.534302	1246.353882	2373.749023	1496.233887	22.164368
830.838562	1246.873901	2293.650635	1473.868774	21.685127
831.142944	1249.177368	2240.152588	1463.912109	21.669033
831.447144	1240.855347	2193.193359	1453.658569	22.345346
831.751404	1245.462280	2168.153320	1446.971191	21.839262
832.055542	1247.839966	2150.766602	1439.392456	21.214624
832.359619	1255.864624	2159.682861	1441.472656	20.535992
832.663635	1254.007080	2187.471924	1441.621216	20.098682
832.967651	1253.784058	2242.827637	1451.800781	20.021030
833.271545	1253.858398	2352.127197	1480.407227	20.627813
833.575439	1255.864624	2518.193604	1524.988892	21.319662
833.879211	1254.601440	2748.903320	1583.019409	21.978020
834.183044	1251.034912	2996.777344	1633.248047	21.894016
834.486694	1245.610718	3184.911865	1679.390137	22.367821
834.790344	1244.273438	3243.685303	1692.021484	22.393988
835.093933	1238.329224	3176.515625	1683.551147	22.971058
835.397522	1243.233276	3022.411865	1640.529907	22.330339
835.700928	1247.765747	2817.485107	1593.793457	22.043922
836.004395	1257.945068	2625.338135	1549.137329	21.295431
836.307739	1246.576782	2455.704834	1516.444336	22.319187
836.611023	1237.214600	2336.151611	1490.809937	23.076422
836.914307	1228.595459	2231.905273	1462.351929	23.298532
837.217529	1238.180542	2157.379639	1443.999023	22.391066
837.520691	1236.991699	2094.816650	1425.349243	21.957573
837.823730	1242.415771	2045.256836	1415.095337	21.508562
838.126831	1244.719116	1995.250977	1398.748657	20.522718
838.429749	1249.994629	1961.369019	1389.906616	19.667841
838.732727	1248.285645	1931.276367	1383.516602	19.799824
839.035522	1238.997925	1910.991821	1386.414429	21.937180
839.338379	1236.620239	1898.137329	1392.210083	23.520155
839.641113	1237.437500	1902.521118	1393.993286	23.539263
839.943848	1246.056763	1936.031738	1396.891113	21.860844
840.246460	1247.171265	1998.668945	1403.801270	20.842381
840.549072	1249.697388	2055.138916	1416.358398	20.691881
840.851563	1245.685059	2090.655518	1432.407837	22.098143
841.154053	1246.651001	2079.733154	1431.962036	22.244028
841.456482	1250.440552	2048.303223	1429.658569	22.462263
841.758850	1251.703735	1995.027954	1417.770142	22.341045
842.061157	1248.137085	1943.536499	1410.414185	23.335812
842.363403	1243.307495	1894.496460	1394.662109	23.242809
842.665588	1247.542603	1848.874634	1382.104858	22.377363
842.967712	1251.109253	1813.283569	1372.742798	21.636269
843.269775	1252.075195	1776.875366	1362.860474	21.109993
843.571777	1249.251587	1755.921875	1352.829712	20.442905
843.873840	1248.657227	1733.705444	1350.229004	20.940552
844.175659	1241.747070	1720.925293	1351.566528	22.918291
844.477600	1247.319702	1714.906860	1358.328003	23.740665
844.779297	1247.096802	1709.482788	1350.006226	22.256172
845.081116	1249.474487	1705.173218	1351.269409	22.338205
845.382751	1243.010254	1698.188599	1339.380859	21.172054
845.684387	1249.771729	1686.300171	1332.842163	19.029787
845.985962	1248.434326	1678.795532	1330.018677	18.957180
846.287537	1245.610840	1660.665894	1328.384033	19.942701
846.588989	1241.895752	1658.511108	1329.721558	21.080790
846.890381	1244.867798	1651.452271	1320.285034	18.548971
847.191711	1252.669556	1650.263306	1318.873169	16.651070
847.493042	1250.143433	1642.089966	1319.319092	17.649260
847.794250	1247.914185	1643.353149	1320.730957	18.414162
848.095459	1245.833618	1641.867188	1326.377930	20.337749
848.396606	1248.062866	1640.678345	1331.430542	21.233925
848.697693	1250.068970	1636.740234	1335.071289	21.983097
848.998657	1247.245483	1634.808594	1329.127075	21.127293
849.299622	1248.211426	1632.876587	1325.932129	20.204767
849.600464	1245.016479	1632.356445	1327.566772	21.312103
849.901367	1250.291992	1631.910645	1332.322144	21.495319
850.202087	1253.486938	1629.012817	1334.253906	21.507696
850.502808	1260.396973	1625.966431	1330.241577	19.105700
850.803467	1254.750000	1619.725098	1329.127075	20.378672
851.104065	1246.205200	1617.941772	1327.715454	21.926886
851.404663	1240.409546	1610.660156	1327.195313	23.439735
851.705139	1244.496216	1608.505249	1325.486206	22.249445
852.005615	1251.257813	1601.743652	1327.343750	21.708706
852.306030	1257.053345	1597.359863	1332.619263	22.205252
852.606384	1253.635498	1593.867676	1325.560547	21.139990
852.906616	1257.202026	1591.787109	1316.941528	17.854801
853.206909	1256.830444	1593.644897	1303.195435	13.765737
853.506958	1259.059692	1593.273315	1311.740234	15.762536
853.807129	1251.926636	1591.638672	1317.535889	19.313196
854.107178	1249.103149	1592.084473	1319.839355	20.623924
854.407166	1245.610840	1591.267090	1316.124146	20.399836
854.707092	1255.121582	1589.632446	1311.442993	16.836945
855.007019	1259.505493	1579.081543	1309.956909	15.786983
855.306763	1261.808960	1575.292114	1306.984863	14.410951
855.606567	1250.886230	1581.384888	1308.025146	17.288698
855.906250	1250.514771	1579.675903	1310.477173	18.216732
856.205933	1243.233154	1584.802734	1311.294434	19.926037
856.505493	1241.895630	1578.041382	1306.316040	19.164429
856.805054	1241.152710	1584.877075	1308.693848	19.649796
857.104492	1247.542725	1584.802856	1310.700073	18.726599
857.403931	1249.400269	1579.527344	1314.935303	19.851458
857.703308	1246.502441	1576.629517	1308.768188	18.861145
858.002563	1250.960571	1566.598633	1308.322388	18.173288
858.301819	1250.291870	1568.307617	1307.876587	18.107504
858.601013	1247.394165	1561.694702	1311.963257	20.543741
858.900208	1248.360107	1562.957642	1301.635132	16.934343
859.199219	1251.777954	1559.391235	1297.325562	14.806775
859.498291	1254.601440	1556.419067	1295.616577	13.589377
859.797302	1249.177368	1555.378906	1307.207764	18.951700
860.096191	1246.948364	1557.533569	1310.179810	20.358809
860.395020	1246.130981	1559.094116	1310.700073	20.631533
860.693787	1248.954468	1553.595581	1300.669067	16.975582
860.992554	1251.777954	1544.382202	1294.873535	14.728283
861.291260	1247.988403	1543.341797	1296.953979	16.578640
861.589844	1242.638672	1542.227173	1304.235718	20.560551
861.888428	1241.301270	1543.341797	1310.402710	22.878202
862.186890	1249.474487	1536.580444	1308.322388	20.496927
862.485413	1256.013062	1532.865234	1307.059204	18.438049
862.783813	1253.858276	1534.796997	1301.709351	17.032566
863.082153	1246.799683	1538.586426	1300.297729	18.334639
863.380371	1242.861450	1542.895874	1298.365845	18.499342
863.678589	1244.421997	1542.821655	1300.520508	18.799791
863.976746	1244.199097	1543.490356	1298.588745	18.172815
864.274902	1247.245483	1541.632813	1295.988159	16.557327
864.572937	1244.793579	1538.660767	1300.000488	18.786346
864.870911	1247.022583	1538.809448	1304.755859	19.786112
865.168884	1239.592285	1549.657593	1301.040649	19.817879
865.466736	1244.867798	1554.190063	1299.183105	17.559456
865.764587	1244.570679	1548.468750	1297.994263	17.579441
866.062317	1250.217651	1535.688599	1314.860962	22.644445
866.360107	1245.685059	1525.286255	1316.347046	25.272419
866.657715	1243.307251	1525.657837	1320.359375	27.289522
866.955322	1249.623169	1522.388550	1315.158081	24.026110
867.252808	1246.576782	1528.109863	1312.111694	23.277872
867.550293	1246.725464	1520.233765	1310.774292	23.417507
867.847717	1235.134155	1521.719727	1301.263550	23.074921
868.145081	1235.654297	1519.862183	1300.297607	22.745079
868.442383	1239.518066	1526.400757	1302.823975	22.066828
868.739624	1245.388062	1524.617554	1300.743408	19.824320
869.036804	1254.973145	1520.456543	1304.830078	18.779680
869.333984	1254.452881	1519.193359	1303.046753	18.355286
869.631042	1248.731567	1521.125366	1310.551392	22.695019
869.928101	1241.672852	1526.252319	1302.526733	21.383793
870.224976	1238.774902	1527.738281	1292.867310	18.719467
870.521851	1245.090698	1527.663940	1294.056152	17.328411
870.818726	1247.914185	1533.831055	1298.439941	17.671486
871.115479	1252.595337	1548.097290	1306.018921	18.078928
871.412231	1254.898560	1552.629517	1306.464722	17.319717
871.708862	1258.985229	1552.109375	1304.755859	15.614759
872.005493	1269.907715	1540.964233	1298.662964	10.608581
872.302063	1263.666382	1536.951782	1294.130493	11.147362
872.598572	1262.551758	1531.601929	1287.517578	9.279243
872.895020	1247.542725	1528.555664	1285.808716	13.617164
873.191406	1239.963867	1531.824829	1287.220337	16.191433
873.487671	1236.100098	1532.567993	1297.845703	20.827080
873.783997	1240.038086	1543.564819	1308.768066	22.643799
874.080200	1248.062866	1540.443970	1311.220093	21.600994
874.376343	1248.880005	1541.038452	1311.665894	21.490355
874.672424	1243.678833	1536.060059	1302.303711	20.050835
874.968445	1241.449829	1537.917603	1303.046875	20.776979
875.264465	1235.505615	1540.815430	1299.851807	21.075703
875.560364	1238.700684	1540.369629	1305.127197	22.019672
875.856201	1237.957642	1536.283081	1297.473999	19.950146
876.152039	1235.951538	1530.338867	1296.582397	20.595608
876.447754	1235.802856	1529.001465	1291.158325	18.879854
876.743469	1236.322876	1524.469116	1299.777466	22.021662
877.039063	1238.254883	1517.856079	1298.291382	21.472189
877.334595	1237.363159	1513.100586	1306.316162	25.006762
877.630127	1236.620117	1525.657715	1304.532837	23.496155
877.925537	1238.849243	1538.586304	1309.139648	23.450689
878.221008	1240.260986	1546.982544	1304.904419	21.075607
878.516296	1243.678955	1555.973267	1304.607056	19.509834
878.811646	1248.508667	1564.592407	1303.418335	17.371874
879.106812	1247.096802	1580.270386	1308.693848	18.487974
879.401978	1250.068970	1590.152710	1309.734131	17.544256
879.697083	1248.880249	1617.124390	1318.650391	18.946709
879.992126	1250.514771	1639.192261	1325.189087	19.212410
880.287109	1252.372437	1681.990601	1342.278687	20.927013
880.582031	1255.790283	1746.708374	1361.002930	21.431812
880.876892	1252.075195	1895.016602	1393.027344	21.923016
881.171753	1254.898682	2154.555908	1441.695679	20.763130
881.466492	1248.434326	2578.675781	1538.957886	21.839912
881.761230	1249.623169	3112.615234	1659.476929	21.999760
882.055786	1236.620239	3639.198486	1776.206421	22.458632
882.350403	1242.861694	3955.802734	1833.196655	21.759964
882.644958	1245.610840	3971.332031	1827.475220	21.347172
882.939453	1252.075195	3723.011963	1780.293335	21.377243
883.233826	1250.068970	3341.764893	1705.395996	21.768320
883.528137	1249.623169	2944.542236	1626.040649	22.208582
883.822449	1254.229980	2614.341309	1543.341797	21.256481
884.116577	1247.765625	2350.492432	1482.487915	21.285625
884.410828	1249.548828	2166.741699	1441.844360	20.965660
884.704956	1247.765625	2021.405396	1407.070679	20.591633
884.999023	1248.880249	1908.019531	1388.346313	21.158815
885.292969	1242.564453	1829.109985	1369.770630	21.687349
885.586914	1241.226929	1766.324219	1364.049438	23.390429
885.880798	1252.000854	1737.271851	1352.086548	20.624701
886.174622	1257.796509	1719.216187	1351.195068	20.241564
886.468384	1255.344482	1699.005981	1345.102173	20.231119
886.762085	1246.502563	1685.557251	1339.306519	21.137220
887.055664	1242.713013	1658.585327	1323.257202	19.367529
887.349304	1241.375488	1646.548218	1319.913452	19.383823
887.642822	1241.672729	1619.724976	1316.421265	19.772013
887.936340	1242.490112	1605.384644	1315.901123	20.229296
888.229736	1247.468384	1584.431274	1314.712280	19.955875
888.523071	1246.651001	1565.632690	1306.241821	18.681580
888.816284	1252.149414	1544.976563	1301.783813	16.950068
889.109619	1250.366089	1529.967163	1302.972656	18.814865
889.402710	1252.297974	1525.880493	1306.093140	19.663233
889.695862	1249.103027	1514.958008	1303.121094	20.318621
889.988892	1247.022583	1507.825195	1297.696899	19.430141
890.281921	1246.502563	1503.738525	1304.012817	22.357004
>>>>>End Processed Spectral Data<<<<<
