Jaz Data File
++++++++++++++++++++++++++++++++++++
Date: Fri Jun 04 12:02:21 2021
User: jaz
Dark Spectrum Present: Yes
Reference Spectrum Present: Yes
Processed Spectrum Present: Yes
Spectrometers: JAZA3586
Integration Time (usec): 23600 (JAZA3586)
Spectra Averaged: 10 (JAZA3586)
Boxcar Smoothing: 1 (JAZA3586)
Correct for Electrical Dark: No (JAZA3586)
Strobe/Lamp Enabled: Yes (JAZA3586)
Correct for Detector Non-linearity: No (JAZA3586)
Correct for Stray Light: No (JAZA3586)
Number of Pixels in Processed Spectrum: 2048
>>>>>Begin Processed Spectral Data<<<<<
W	D	R	S	P
191.335022	0.000000	0.000000	0.000000	0.000000
191.713211	332.876190	332.950470	337.111420	5701.725586
192.091385	669.244568	678.309509	675.560303	69.672096
192.469528	1008.436523	1024.337280	1024.188599	99.064941
192.847641	1020.176270	1034.219604	1025.154663	35.450222
193.225739	1031.247437	1039.792236	1035.185425	46.086372
193.603790	1047.445435	1044.027466	1041.649780	169.564285
193.981842	1053.241089	1053.909668	1049.674438	-533.467224
194.359863	1060.151245	1059.556763	1055.544556	774.907593
194.737854	1054.578613	1067.209961	1055.693115	8.823302
195.115829	1059.259644	1068.398804	1059.408203	1.625528
195.493774	1058.368042	1066.244019	1060.894165	32.073776
195.871704	1065.798218	1066.169800	1058.145020	-2059.625488
196.249603	1068.398804	1072.708374	1059.928345	-196.549973
196.627457	1071.816772	1069.959106	1059.259644	675.962646
197.005310	1070.330688	1067.209961	1055.395996	478.564453
197.383133	1065.798340	1068.770264	1056.659058	-307.520752
197.760910	1060.671509	1070.182007	1054.504272	-64.846619
198.138687	1054.355713	1072.931274	1056.213135	9.999277
198.516449	1057.996460	1068.993164	1052.423706	-50.676582
198.894180	1062.008789	1072.782715	1052.720947	-86.206665
199.271866	1062.751831	1063.940674	1049.600220	-1106.253174
199.649536	1057.699219	1058.516602	1049.154419	-1045.385254
200.027191	1056.956177	1058.070801	1040.163696	-1506.560059
200.404816	1063.494995	1068.324585	1046.033569	-361.550903
200.782410	1061.785889	1072.782715	1049.080078	-115.540703
201.159988	1061.265869	1075.829102	1054.504150	-46.430069
201.537537	1051.086304	1080.807251	1048.485718	-8.750010
201.915070	1049.971802	1089.203613	1047.222534	-7.007751
202.292557	1044.324829	1097.153931	1048.114136	7.172764
202.670029	1048.411377	1091.729858	1049.525879	2.572809
203.047485	1048.337036	1088.237549	1048.485596	0.372325
203.424911	1046.256714	1081.847656	1041.278198	-13.988153
203.802292	1046.330933	1088.088989	1040.535278	-13.879128
204.179688	1045.216431	1085.191162	1033.030640	-30.483734
204.557037	1043.656128	1093.364502	1035.631226	-16.143965
204.934357	1039.643677	1090.689575	1037.934692	-3.347937
205.311661	1042.318604	1090.912598	1043.804565	3.057913
205.688934	1040.312500	1084.893921	1047.594116	16.333298
206.066177	1036.745850	1083.259277	1039.717896	6.389651
206.443390	1029.167114	1081.550293	1040.906738	22.411057
206.820587	1028.498291	1078.132446	1043.210083	29.640461
207.197769	1038.083374	1074.120117	1049.525879	31.752329
207.574921	1039.495117	1074.120117	1047.073853	21.888044
207.952042	1038.603394	1069.587646	1043.433105	15.587634
208.329147	1033.922363	1065.723877	1043.878906	31.308393
208.706223	1047.073975	1073.897095	1048.931519	6.925160
209.083267	1058.516479	1079.321289	1046.553833	-57.499428
209.460297	1060.745605	1083.705200	1051.012085	-42.394131
209.837280	1047.519653	1081.030273	1045.885132	-4.877622
210.214264	1037.191772	1080.956055	1048.337036	25.466576
210.591217	1033.699463	1083.928101	1035.779907	4.141949
210.968124	1034.962524	1086.008667	1039.792236	9.461463
211.345016	1036.820190	1089.797974	1038.603394	3.365945
211.721893	1035.259766	1086.231567	1035.036987	-0.437062
212.098724	1032.584839	1081.699097	1028.349731	-8.622970
212.475555	1038.380493	1079.990112	1026.194824	-29.285702
212.852356	1040.758179	1084.151001	1034.070923	-15.410973
213.229126	1043.730225	1084.299683	1033.848022	-24.358723
213.605865	1037.117310	1084.225464	1027.235229	-20.977430
213.982590	1034.814087	1081.773315	1028.275391	-13.924199
214.359283	1029.092773	1084.671143	1021.365234	-13.903861
214.735931	1026.937866	1086.825928	1024.485962	-4.094145
215.112579	1023.668640	1087.048828	1020.473450	-5.041308
215.489197	1034.219604	1082.144897	1030.801636	-7.131868
215.865799	1041.947144	1073.302856	1023.445618	-59.005280
216.242355	1040.535278	1072.485474	1026.789307	-43.023121
216.618896	1030.950195	1077.612305	1020.176270	-23.089239
216.995407	1027.532227	1086.157227	1032.510620	8.491929
217.371902	1035.334106	1093.959106	1033.550903	-3.041711
217.748367	1042.169922	1095.593628	1032.733643	-17.663094
218.124802	1033.996704	1095.667969	1028.721313	-8.554049
218.501236	1036.151489	1094.627808	1022.925598	-22.617517
218.877609	1033.030762	1093.290283	1023.371399	-16.029604
219.253983	1046.628296	1088.906372	1020.473572	-61.863564
219.630295	1043.433105	1087.494751	1023.371399	-45.530998
220.006592	1043.730347	1089.723755	1030.281616	-29.240561
220.382889	1037.934692	1097.897095	1030.652954	-12.143840
220.759140	1038.900635	1103.023926	1031.173218	-12.050874
221.135391	1035.482788	1107.704956	1029.687134	-8.024758
221.511581	1040.089478	1107.036255	1032.139160	-11.875579
221.887772	1039.346436	1109.191040	1036.002808	-4.787239
222.263931	1051.680786	1100.348999	1041.203979	-21.527000
222.640060	1055.395874	1098.862915	1044.324829	-25.469976
223.016159	1053.018188	1099.754517	1046.182373	-14.626343
223.392212	1047.742676	1101.092163	1046.330933	-2.646217
223.768265	1044.399048	1101.537842	1042.169922	-3.901248
224.144302	1051.309204	1101.612061	1038.008911	-26.440434
224.520294	1045.810791	1106.887573	1038.008911	-12.773889
224.896286	1043.655884	1108.893921	1041.724121	-2.961099
225.272217	1040.535278	1103.321167	1036.448608	-6.508899
225.648148	1041.278320	1103.469727	1027.160767	-22.700169
226.024048	1036.671509	1106.218872	1021.959534	-21.153893
226.399902	1034.665405	1110.974243	1027.086548	-9.931821
226.775772	1038.231934	1114.243530	1027.160767	-14.565103
227.151581	1044.844849	1113.129028	1032.436401	-18.171774
227.527374	1038.306274	1121.450928	1023.891602	-17.336861
227.903137	1040.089478	1130.664429	1027.681030	-13.699646
228.278870	1036.894531	1151.915161	1025.005981	-10.336015
228.654572	1044.250366	1160.682861	1034.962646	-7.976914
229.030273	1037.934692	1170.713745	1029.166992	-6.603225
229.405930	1039.643677	1175.543335	1029.167114	-7.709043
229.781555	1034.293823	1182.304932	1025.526245	-5.923594
230.157181	1031.618896	1178.664063	1039.197876	5.154185
230.532761	1029.464233	1168.113159	1040.312378	7.824182
230.908325	1035.185425	1159.865356	1047.445557	9.833284
231.283859	1036.597168	1160.162720	1040.386719	3.066834
231.659332	1038.603394	1159.865479	1038.083374	-0.428839
232.034821	1030.504395	1153.475464	1031.098877	0.483433
232.410263	1031.916138	1146.936890	1032.882080	0.839798
232.785690	1026.863647	1142.850098	1037.711792	9.352942
233.161087	1033.179321	1145.450684	1041.649780	7.544630
233.536469	1028.126709	1156.744751	1040.089478	9.301003
233.911804	1029.464233	1166.403931	1037.043091	5.534449
234.287140	1028.275391	1162.688965	1032.064819	2.819231
234.662430	1041.501343	1156.373169	1034.070923	-6.468444
235.037704	1047.296997	1154.887085	1036.077148	-10.428329
235.412933	1051.160645	1174.354370	1039.866577	-9.167729
235.788162	1045.885132	1184.682495	1032.362061	-9.743032
236.163345	1046.330933	1188.769165	1033.328003	-9.128819
236.538513	1045.885132	1182.082031	1034.293823	-8.510699
236.913635	1047.965698	1184.236694	1038.380493	-7.033929
237.288742	1043.284546	1191.890015	1036.300171	-4.699945
237.663834	1052.498047	1201.326416	1030.727417	-14.628011
238.038879	1060.076904	1202.218140	1030.578735	-20.752718
238.413910	1062.083130	1205.115845	1038.306274	-16.623369
238.788910	1046.999634	1204.075562	1044.473511	-1.608218
239.163879	1038.603516	1205.115845	1045.587891	4.194509
239.538834	1041.649780	1206.304565	1038.231934	-2.075765
239.913757	1041.649780	1222.056763	1043.656128	1.112123
240.288651	1043.433105	1243.901733	1046.925415	1.742073
240.663528	1033.328003	1266.044067	1052.349487	8.173688
241.038361	1046.108032	1284.025269	1048.337036	0.936882
241.413177	1041.129761	1313.820679	1057.104858	5.858317
241.787979	1049.377319	1341.981445	1056.733276	2.513962
242.162735	1029.984375	1374.674683	1054.652954	7.156737
242.537476	1035.854248	1396.742554	1042.467163	1.832399
242.912170	1031.693237	1413.683594	1047.594116	4.162639
243.286865	1038.603394	1415.838379	1045.513550	1.831791
243.661514	1038.083374	1396.816895	1049.228760	3.106870
244.036148	1036.448730	1379.950195	1044.399048	2.314493
244.410751	1043.581787	1369.027710	1047.817017	1.301362
244.785339	1043.135864	1368.136108	1047.148315	1.234599
245.159882	1045.959351	1387.231812	1043.135864	-0.827341
245.534378	1038.677612	1406.624878	1046.182251	2.039596
245.908890	1037.414551	1460.345703	1047.594116	2.406909
246.283356	1037.488892	1513.174927	1053.761353	3.420841
246.657791	1040.609619	1593.050415	1048.634277	1.452582
247.032196	1042.318604	1644.616577	1054.950073	2.097213
247.406586	1040.089478	1684.591187	1056.064697	2.478693
247.780960	1042.392944	1695.588257	1066.467041	3.685589
248.155289	1040.906860	1689.718262	1060.225586	2.977556
248.529602	1040.163696	1656.876465	1055.024414	2.409666
248.903870	1043.358887	1600.926392	1047.742676	0.786235
249.278122	1033.996704	1551.515015	1049.674561	3.029430
249.652344	1038.380493	1511.094360	1049.377319	2.326318
250.026550	1032.956421	1490.438354	1045.067749	2.647389
250.400711	1045.364990	1467.255859	1038.306274	-1.673114
250.774857	1043.953247	1468.890625	1039.420776	-1.066621
251.148987	1049.005737	1479.515747	1044.176147	-1.121830
251.523071	1041.947144	1506.859375	1054.801392	2.764876
251.897125	1043.953247	1519.639282	1055.915894	2.514820
252.271164	1042.169922	1524.097290	1055.321655	2.728987
252.645187	1041.426880	1522.388306	1053.761108	2.564494
253.019165	1042.615723	1513.694946	1052.869507	2.176658
253.393112	1039.123657	1494.599243	1055.172974	3.523639
253.767044	1035.557129	1473.497192	1048.262817	2.901239
254.140930	1035.036743	1459.454102	1041.872803	1.610693
254.514801	1036.522949	1451.875122	1044.324707	1.878348
254.888657	1039.717896	1445.559570	1043.210083	0.860480
255.262466	1030.578735	1443.627563	1050.937622	4.928930
255.636276	1034.962524	1466.512695	1043.433105	1.962826
256.010010	1036.077148	1491.404175	1050.714722	3.214739
256.383759	1036.968750	1527.961060	1056.956177	4.070823
256.757446	1029.910034	1558.053711	1067.209961	7.062458
257.131134	1030.801758	1603.229858	1069.216187	6.710787
257.504791	1025.154663	1639.712402	1070.702148	7.411425
257.878418	1029.166992	1687.191895	1067.358521	5.803964
258.252014	1030.652954	1750.720703	1069.290527	5.365825
258.625580	1047.519775	1845.530884	1069.364746	2.737427
258.999115	1048.114136	1967.387329	1074.714600	2.893641
259.372650	1044.844849	2079.658936	1076.646484	3.073174
259.746124	1035.705688	2176.846924	1080.807373	3.952332
260.119598	1032.510620	2233.762695	1086.900269	4.527747
260.493042	1033.476440	2257.316650	1086.454468	4.328835
260.866425	1038.826294	2221.056885	1076.572144	3.192765
261.239838	1034.368164	2145.639648	1068.547485	3.075695
261.613159	1040.981079	2043.324829	1062.306030	2.127509
261.986511	1035.036987	1961.814819	1064.015015	3.126750
262.359802	1045.885132	1899.400391	1060.002563	1.654034
262.733063	1038.752075	1864.849609	1062.083008	2.824235
263.106293	1046.182251	1841.592896	1060.671265	1.821577
263.479523	1036.300049	1828.144165	1058.367920	2.786896
263.852692	1039.197876	1818.782227	1063.494751	3.116645
264.225861	1030.430054	1814.546875	1062.677368	4.112565
264.598969	1028.572510	1811.277344	1069.067505	5.173725
264.972076	1025.600464	1831.487915	1068.398804	5.310709
265.345154	1032.436279	1867.673340	1068.324585	4.296781
265.718201	1041.203979	1914.112305	1070.553589	3.362278
266.091217	1048.560059	1966.272827	1069.959106	2.331780
266.464203	1045.736450	2006.321899	1072.559814	2.792397
266.837158	1038.900635	2048.600342	1072.262573	3.304145
267.210114	1037.637451	2066.804443	1070.627930	3.205552
267.583038	1042.467163	2088.649414	1074.714478	3.082380
267.955902	1049.748901	2101.132568	1069.661987	1.893988
268.328766	1043.953247	2119.633545	1062.231812	1.699256
268.701569	1040.238159	2127.435547	1058.590820	1.688071
269.074371	1041.872803	2149.652100	1061.934570	1.810990
269.447144	1048.039917	2176.921143	1064.460815	1.454617
269.819885	1052.943848	2236.809326	1069.810547	1.424714
270.192596	1049.600220	2309.477295	1076.795044	2.158530
270.565277	1044.993530	2418.330811	1088.237671	3.148836
270.937927	1044.176147	2520.273926	1092.918823	3.302130
271.310577	1037.860352	2609.363037	1097.154053	3.773057
271.683136	1040.386597	2676.086670	1095.370728	3.361505
272.055725	1038.454956	2691.987305	1101.166382	3.792573
272.428284	1044.250488	2677.870117	1096.187988	3.179290
272.800812	1050.491821	2610.105957	1093.290283	2.744170
273.173279	1051.086304	2557.648438	1086.082886	2.322943
273.545776	1051.606445	2520.645752	1088.757813	2.528957
273.918152	1041.352661	2505.116455	1093.661743	3.573601
274.290558	1039.792358	2496.125488	1091.655640	3.561224
274.662964	1034.888306	2479.258545	1087.271606	3.626723
275.035278	1037.340210	2478.961426	1088.088989	3.520257
275.407593	1041.055298	2495.976807	1091.061157	3.437014
275.779907	1046.256470	2541.078857	1094.181885	3.206094
276.152161	1052.275146	2595.468506	1093.141602	2.648175
276.524384	1049.228882	2642.799072	1090.243774	2.573774
276.896606	1049.005737	2662.861084	1091.358276	2.624308
277.268799	1040.609497	2668.062012	1086.974487	2.848930
277.640930	1039.643677	2674.006104	1089.649414	3.059648
278.013031	1041.055420	2686.712158	1092.472900	3.124435
278.385162	1041.501343	2685.746094	1098.565796	3.470557
278.757233	1039.940918	2688.346680	1097.599854	3.497861
279.129272	1030.653076	2707.962646	1093.215942	3.729954
279.501282	1029.166992	2754.401611	1097.376953	3.953663
279.873230	1024.857422	2820.977295	1096.708130	4.000329
280.245178	1031.544678	2899.589600	1098.714233	3.595714
280.617126	1031.098755	3000.195313	1096.262329	3.309313
280.988983	1034.665405	3104.590820	1103.098145	3.306049
281.360870	1033.848022	3212.032227	1110.008423	3.496509
281.732697	1033.848022	3280.316406	1111.643066	3.462993
282.104492	1035.779907	3309.517334	1113.426392	3.414928
282.476288	1035.259888	3317.616211	1110.380005	3.291340
282.848053	1037.043091	3302.235596	1105.475952	3.021062
283.219757	1032.361938	3302.532959	1103.841309	3.148634
283.591461	1034.591064	3273.034912	1096.039429	2.745138
283.963135	1040.535278	3293.171143	1101.537720	2.708047
284.334747	1051.234863	3342.582275	1098.045532	2.042932
284.706360	1043.358887	3414.135986	1111.717285	2.883375
285.077942	1035.185425	3507.237061	1122.045410	3.513680
285.449524	1030.504395	3572.846436	1130.144409	3.919221
285.821014	1039.494995	3608.883545	1125.909058	3.363215
286.192535	1044.473267	3647.223389	1123.234253	3.026068
286.563995	1038.826416	3638.307373	1116.472656	2.986990
286.935425	1037.711792	3633.254639	1114.540894	2.960040
287.306824	1032.510620	3557.019775	1109.413940	3.046268
287.678223	1039.420776	3493.416748	1113.426270	3.015713
288.049561	1039.940918	3447.125977	1120.187866	3.333643
288.420898	1044.844849	3433.825439	1123.382935	3.287515
288.792145	1040.981079	3459.682861	1125.760620	3.505167
289.163452	1035.259766	3535.843750	1132.299194	3.880671
289.534668	1031.990601	3649.823975	1135.568481	3.956626
289.905914	1027.309448	3771.383545	1139.803711	4.099534
290.277039	1035.779907	3861.215088	1131.853394	3.400308
290.648193	1039.123535	3889.301758	1135.494141	3.381213
291.019318	1049.823120	3887.518311	1135.122681	3.005945
291.390381	1045.810791	3833.871826	1137.648926	3.293979
291.761475	1048.931519	3776.138672	1126.800781	2.855275
292.132507	1043.507446	3726.653076	1130.515991	3.242781
292.503510	1043.953125	3729.625000	1132.224854	3.286765
292.874481	1042.318481	3774.726807	1135.196899	3.399141
293.245422	1043.284546	3854.379150	1135.939941	3.296061
293.616364	1032.362183	3959.146240	1138.391968	3.622740
293.987213	1029.687134	4076.841553	1148.942871	3.913676
294.358093	1030.801636	4187.701172	1149.091431	3.747025
294.728943	1046.108032	4299.229004	1147.679810	3.122287
295.099731	1049.154419	4392.256348	1147.308228	2.936010
295.470490	1050.269043	4482.460449	1152.509521	2.978869
295.841248	1039.346313	4557.431641	1161.054321	3.459496
296.211975	1040.906860	4656.551758	1168.558960	3.530549
296.582642	1034.962769	4767.262695	1160.905762	3.374407
296.953308	1040.832520	4819.571777	1163.357788	3.242491
297.323883	1036.077271	4811.621582	1162.317505	3.343630
297.694519	1039.718018	4707.003418	1163.060425	3.363316
298.065063	1040.535278	4593.543457	1148.348511	3.034421
298.435608	1037.563232	4461.878906	1132.522095	2.773076
298.806122	1036.745972	4307.403320	1122.119629	2.610291
299.176575	1038.380493	4158.352051	1120.262085	2.624434
299.547028	1043.061523	4058.489014	1124.125854	2.688320
299.917450	1043.135864	4026.687500	1129.995728	2.911291
300.287872	1038.529175	4027.356201	1133.413696	3.174641
300.658234	1032.807739	4006.179932	1134.602539	3.423547
301.028564	1031.916138	3978.985107	1128.955566	3.292744
301.398865	1032.733521	3939.381592	1125.314697	3.185153
301.769135	1035.928589	3901.487061	1118.107300	2.867808
302.139374	1032.213379	3858.911865	1118.553101	3.054437
302.509583	1028.126831	3827.035889	1114.392212	3.082107
302.879791	1024.708862	3779.333740	1111.643066	3.155936
303.249939	1030.578735	3754.145264	1113.277710	3.036422
303.620087	1030.504395	3714.541748	1118.478882	3.277692
303.990173	1036.745850	3713.650146	1121.228027	3.155966
304.360260	1036.448608	3702.207275	1121.896851	3.205400
304.730286	1043.581665	3699.160889	1118.627563	2.825971
305.100281	1044.622070	3683.780273	1120.410767	2.871700
305.470276	1050.789185	3688.832764	1119.742065	2.613789
305.840179	1045.736572	3707.780273	1118.478882	2.732574
306.210144	1037.860474	3729.847900	1118.924683	3.011315
306.579987	1026.789429	3758.677490	1120.782227	3.440580
306.949890	1034.516724	3786.243408	1121.451050	3.159265
307.319702	1038.603394	3849.772461	1125.017578	3.073959
307.689484	1046.628052	3937.152588	1123.977295	2.675959
308.059265	1039.792358	4054.105469	1133.710938	3.115754
308.429016	1047.074097	4150.252930	1140.249634	3.002584
308.798737	1047.891235	4218.908691	1145.673584	3.083627
309.168396	1053.984009	4255.019531	1139.729370	2.678676
309.538055	1050.789063	4263.415527	1135.345581	2.632006
309.907684	1041.203979	4255.019531	1138.020508	3.012511
310.277313	1037.117432	4277.161621	1142.478638	3.251845
310.646851	1033.402344	4276.566895	1140.769653	3.310572
311.016388	1038.826416	4261.706543	1144.856323	3.289912
311.385895	1033.996704	4211.329590	1142.478638	3.414245
311.755371	1040.386719	4171.577637	1135.197021	3.027931
312.124817	1037.191772	4123.280762	1128.361084	2.954202
312.494232	1040.906860	4063.318359	1123.605591	2.736184
312.863617	1035.928589	4037.015625	1124.645996	2.956176
313.232971	1039.866577	4060.346436	1120.039185	2.654300
313.602295	1039.272217	4130.190918	1125.463257	2.788525
313.971619	1034.293945	4208.654785	1138.614868	3.286360
314.340820	1031.693359	4238.152344	1146.342407	3.575566
314.710083	1023.519958	4234.660156	1144.261841	3.760094
315.079285	1030.578735	4169.720215	1135.122681	3.330335
315.448486	1035.111206	4113.175781	1126.429321	2.966738
315.817596	1048.114258	4015.913330	1127.469482	2.673875
316.186707	1042.541626	3934.700439	1120.782349	2.705271
316.555786	1044.473511	3848.583740	1121.079468	2.731917
316.924866	1041.278320	3794.491455	1115.878296	2.709560
317.293884	1050.714844	3779.556396	1121.599609	2.597614
317.662872	1048.782837	3791.370361	1123.902954	2.739024
318.031830	1048.485596	3829.933594	1123.159790	2.684724
318.400757	1042.690063	3850.812744	1121.005127	2.788876
318.769684	1039.792114	3885.438232	1122.565430	2.908771
319.138550	1042.615723	3881.574219	1126.949341	2.970583
319.507416	1055.172852	3854.528076	1127.840942	2.595887
319.876190	1060.002563	3818.342529	1123.234253	2.292382
320.244995	1058.442261	3764.027344	1123.085571	2.389255
320.613770	1046.851074	3738.615967	1122.639771	2.815576
320.982483	1047.222534	3720.485596	1131.630371	3.157483
321.351166	1043.656128	3756.374023	1133.487915	3.311505
321.719818	1043.656006	3813.289795	1135.271240	3.307847
322.088440	1037.340210	3912.855469	1135.642822	3.418609
322.457062	1043.358765	4059.603516	1138.169067	3.143323
322.825623	1044.101807	4206.054199	1145.153442	3.195862
323.194183	1046.776733	4325.904785	1148.571411	3.104322
323.562653	1042.392944	4377.395996	1153.698364	3.337491
323.931183	1040.535278	4400.949707	1153.401245	3.358692
324.299591	1033.848145	4369.148926	1151.989380	3.542146
324.668060	1038.454956	4327.984863	1153.624023	3.501080
325.036407	1038.974976	4261.112793	1153.921265	3.567392
325.404755	1046.925415	4197.212402	1154.664307	3.419971
325.773102	1039.197876	4136.507324	1149.537476	3.562434
326.141388	1039.792358	4058.042969	1147.308350	3.562196
326.509674	1033.030762	3998.155029	1144.038940	3.743795
326.877899	1034.516724	3927.121826	1147.531128	3.907011
327.246124	1035.334106	3899.183838	1148.051270	3.935862
327.614288	1035.705566	3859.580811	1142.850220	3.794242
327.982422	1033.922363	3845.166016	1140.472534	3.790143
328.350525	1029.835693	3859.580811	1146.491089	4.122470
328.718628	1028.646851	3886.180908	1149.537476	4.230592
329.086700	1031.470337	3941.982422	1149.611694	4.059126
329.454712	1030.504395	3972.074951	1142.329956	3.801560
329.822693	1035.928589	4011.009521	1145.822266	3.693805
330.190674	1038.900635	4054.030518	1148.348633	3.629960
330.558563	1039.346313	4091.181641	1157.933594	3.885769
330.926483	1042.095703	4153.447754	1167.072754	4.016809
331.294312	1038.454834	4217.793457	1165.661011	4.001026
331.662231	1045.810913	4315.798828	1166.775635	3.699241
332.029999	1037.563354	4419.080078	1168.187378	3.862883
332.397766	1039.866577	4477.259277	1179.704346	4.068135
332.765503	1038.008911	4521.023438	1189.586548	4.351909
333.133240	1050.046021	4516.490723	1191.741333	4.087626
333.500916	1056.807617	4523.697754	1189.437988	3.825629
333.868561	1059.185425	4501.927246	1186.614380	3.701380
334.236176	1052.498047	4483.129395	1190.403931	4.019840
334.603790	1046.108032	4454.968262	1191.815552	4.274376
334.971344	1037.637451	4432.603027	1188.249146	4.436325
335.338867	1035.036987	4421.086426	1189.883789	4.573081
335.706360	1028.349731	4408.529297	1204.447144	5.209706
336.073853	1035.705688	4428.070801	1213.363403	5.236987
336.441284	1033.476563	4444.714355	1212.768921	5.255933
336.808655	1032.139160	4477.927734	1213.214722	5.254982
337.176086	1029.984375	4515.673340	1213.957886	5.277967
337.543396	1027.383667	4534.843750	1222.651367	5.567211
337.910706	1040.386597	4550.596191	1219.381958	5.099278
338.277954	1044.324829	4539.970215	1224.880371	5.165156
338.645264	1047.519775	4523.326660	1226.663696	5.154024
339.012421	1042.690063	4476.812988	1225.697632	5.329092
339.379669	1041.352539	4394.783203	1222.056763	5.388638
339.746796	1043.953247	4311.415527	1216.261353	5.273453
340.113953	1037.043091	4252.196289	1215.369751	5.546443
340.481018	1033.848022	4224.778320	1216.930054	5.737576
340.848114	1035.854248	4239.119141	1217.598633	5.673723
341.215118	1040.981079	4283.700684	1221.611084	5.570324
341.582153	1044.101807	4399.093262	1233.871094	5.656327
341.949066	1042.095703	4558.769043	1246.799683	5.820955
342.316010	1041.724121	4764.958984	1255.344604	5.737497
342.682922	1035.185547	4975.161133	1271.765259	6.004599
343.049835	1030.207153	5239.382324	1289.152222	6.151919
343.416656	1030.132935	5514.970215	1314.935181	6.350336
343.783478	1031.916260	5748.875488	1327.715332	6.270970
344.150269	1034.070923	5870.955078	1337.671875	6.276788
344.516998	1036.299927	5871.921387	1342.352905	6.329134
344.883728	1032.436157	5791.525391	1337.300415	6.405937
345.250427	1040.163696	5676.431152	1335.888672	6.378514
345.617065	1037.340210	5548.332520	1327.269531	6.427174
345.983704	1034.516724	5445.200684	1326.600830	6.622195
346.350281	1026.343628	5330.774414	1319.244751	6.804643
346.716827	1027.978149	5216.497070	1309.585449	6.723314
347.083405	1032.361938	5098.949707	1311.814575	6.871919
347.449860	1037.711792	5033.786621	1314.935303	6.937396
347.816376	1040.163696	5014.021484	1328.012573	7.243562
348.182770	1041.724121	5046.046387	1323.182861	7.028873
348.549194	1040.238159	5086.764160	1320.359375	6.922512
348.915558	1028.943970	5149.996094	1316.198486	6.970417
349.281921	1028.646851	5210.032715	1318.056030	6.921370
349.648193	1029.464233	5262.712891	1329.052734	7.077035
350.014526	1042.838745	5294.588867	1339.455200	6.976338
350.380737	1044.101929	5319.777832	1344.953613	7.036354
350.746948	1041.278320	5361.238770	1340.346802	6.922945
351.113159	1035.408325	5432.940918	1344.433472	7.027239
351.479309	1036.151367	5490.599609	1349.040161	7.024188
351.845428	1037.860352	5589.421875	1358.550903	7.045726
352.211517	1043.284546	5660.678223	1367.467285	7.020904
352.577576	1037.563110	5800.739746	1384.333984	7.280244
352.943604	1042.318481	5911.673340	1406.847656	7.486190
353.309601	1036.002808	6061.393066	1423.268555	7.706183
353.675537	1043.804565	6195.212402	1437.014648	7.633061
354.041473	1034.516724	6322.715332	1448.754517	7.833250
354.407379	1031.247437	6450.292969	1456.110352	7.840180
354.773254	1027.903809	6572.520996	1464.209473	7.868995
355.139038	1029.166992	6717.857422	1470.450806	7.757213
355.504913	1039.866577	6918.400391	1489.695313	7.652057
355.870636	1038.603394	7145.470215	1512.803345	7.765028
356.236389	1042.912964	7414.519531	1542.598755	7.842383
356.602081	1035.482544	7658.604004	1565.038208	7.995560
356.967804	1035.334106	7848.744629	1585.174316	8.069970
357.333405	1035.036987	7952.025879	1587.031738	7.980275
357.699036	1041.649780	7952.917480	1593.198853	7.980433
358.064606	1038.008911	7895.035156	1588.889282	8.033809
358.430176	1028.052368	7830.837402	1594.387817	8.325052
358.795654	1025.005981	7852.683105	1597.805786	8.389380
359.161163	1035.928589	8027.294434	1616.455688	8.303487
359.526581	1043.358765	8363.291016	1647.811523	8.257627
359.892029	1044.473389	8861.342773	1694.993652	8.322005
360.257416	1042.912964	9358.724609	1742.027344	8.407049
360.622772	1039.792236	9785.296875	1779.475952	8.457873
360.988098	1038.306274	10053.455078	1811.500366	8.576610
361.353394	1031.619019	10151.311523	1828.812988	8.741457
361.718658	1038.009155	10008.576172	1826.583862	8.790689
362.083893	1035.259888	9605.038086	1796.416870	8.881875
362.449097	1036.597168	9077.266602	1749.606079	8.867532
362.814209	1037.711670	8498.225586	1697.074219	8.838032
363.179382	1034.962524	7971.121094	1654.721680	8.935193
363.544434	1029.464111	7564.610840	1629.681641	9.184454
363.909546	1026.566284	7309.232422	1626.709595	9.552367
364.274536	1033.476440	7183.066895	1616.678711	9.483596
364.639587	1039.643677	7059.501465	1599.737671	9.304107
365.004517	1039.643677	6999.093750	1588.071899	9.202664
365.369507	1034.665405	6943.886719	1592.976074	9.448126
365.734344	1038.008911	6946.561035	1600.332031	9.517105
366.099274	1039.272217	6936.158691	1607.167847	9.630431
366.464081	1038.752075	6905.248535	1604.715820	9.647389
366.828918	1035.779907	6833.546875	1600.926392	9.747658
367.193665	1034.219604	6740.817871	1595.948120	9.843492
367.558411	1037.934692	6690.291504	1591.415649	9.792038
367.923126	1031.247437	6649.721191	1587.180298	9.894732
368.287781	1030.355835	6606.552246	1589.186523	10.021718
368.652435	1029.389771	6560.187012	1590.003906	10.136227
369.017059	1036.968628	6569.549316	1601.000610	10.194736
369.381653	1041.278320	6599.122559	1614.969604	10.322190
369.746185	1038.677734	6653.140625	1618.684692	10.330586
370.110687	1038.603516	6725.361816	1625.520508	10.320765
370.475220	1042.690063	6814.303223	1621.136719	10.022270
370.839661	1047.296875	6864.531250	1629.830078	10.013920
371.204041	1044.770630	6892.246094	1637.780640	10.141299
371.568451	1038.974976	6887.192871	1639.860962	10.274686
371.932770	1036.820190	6884.740723	1637.186157	10.266315
372.297150	1036.894531	6851.899902	1633.396606	10.257979
372.661377	1037.637573	6856.580566	1642.907349	10.401713
373.025696	1042.170044	6889.274902	1656.950684	10.514274
373.389862	1045.290649	6954.512207	1661.854614	10.433928
373.754059	1041.278320	7044.864746	1661.260254	10.326859
374.118225	1035.705566	7167.910156	1675.377808	10.431358
374.482361	1038.306152	7307.300781	1700.492188	10.562875
374.846436	1034.293823	7468.389160	1732.888062	10.857692
375.210510	1029.687012	7707.792480	1761.346069	10.956087
375.574524	1021.216553	8023.430176	1792.107300	11.009243
375.938538	1025.303223	8340.554688	1831.487671	11.020597
376.302460	1029.910034	8571.709961	1859.500000	10.999894
376.666412	1042.838745	8714.891602	1881.865112	10.936139
377.030304	1042.615845	8734.730469	1874.434937	10.813919
377.394196	1047.371094	8628.105469	1867.078735	10.813037
377.757996	1034.665405	8408.244141	1838.620728	10.903191
378.121796	1043.210205	8146.550781	1819.376343	10.926776
378.485565	1039.197876	7887.679688	1784.528442	10.883150
378.849304	1045.216431	7684.238281	1766.992798	10.871727
379.212982	1034.219604	7537.862793	1743.661987	10.908384
379.576630	1039.866577	7466.383301	1739.129395	10.880899
379.940277	1038.974976	7448.402344	1742.027344	10.969036
380.303864	1037.860352	7454.271973	1747.599976	11.061316
380.667450	1029.984253	7478.123535	1751.463745	11.188956
381.030945	1034.442383	7480.054688	1753.247070	11.151845
381.394501	1042.764526	7527.236816	1755.327515	10.988758
381.757935	1051.160645	7580.289063	1768.330444	10.984159
382.121399	1046.033691	7652.957520	1776.800903	11.060627
382.484741	1048.114136	7784.250000	1806.596313	11.259900
382.848145	1045.587891	7929.957520	1829.333008	11.384414
383.211487	1046.405273	8068.681152	1853.555664	11.494143
383.574768	1039.569336	8134.364746	1862.546265	11.599728
383.938019	1043.061646	8164.605469	1859.648560	11.466431
384.301270	1051.680664	8175.082520	1861.431641	11.367476
384.664459	1058.070679	8204.060547	1865.890015	11.304513
385.027649	1049.823120	8215.354492	1875.326294	11.520474
385.390778	1037.340210	8317.891602	1891.747192	11.735471
385.753876	1031.544800	8376.740234	1908.688354	11.941732
386.116943	1035.928467	8468.726563	1927.486938	11.994925
386.479980	1040.015137	8503.500977	1937.071899	12.019274
386.842987	1040.683960	8549.866211	1944.725220	12.039145
387.205994	1038.900757	8574.534180	1944.947876	12.023503
387.568909	1037.563354	8558.261719	1947.697266	12.101721
387.931793	1039.346558	8501.494141	1942.570313	12.104073
388.294678	1040.832520	8450.225586	1944.056274	12.190253
388.657471	1046.033569	8456.763672	1939.821167	12.060722
389.020294	1050.788940	8512.788086	1938.780884	11.900188
389.383057	1048.931396	8696.463867	1964.415405	11.970973
389.745819	1044.399048	8866.766602	1989.826782	12.086209
390.108521	1045.067749	9122.219727	2017.616211	12.040735
390.471191	1045.439331	9359.690430	2040.129883	11.963682
390.833801	1043.953247	9584.159180	2064.501221	11.949923
391.196442	1043.061646	9737.519531	2086.865967	12.005399
391.558960	1046.405273	9751.786133	2087.088867	11.954487
391.921509	1052.200806	9703.711914	2092.364502	12.022914
392.284027	1042.615845	9644.270508	2099.051758	12.281776
392.646484	1039.346436	9623.317383	2105.516113	12.420472
393.008911	1034.219482	9638.623047	2105.218994	12.447109
393.371307	1033.476440	9630.375000	2104.698975	12.460569
393.733673	1032.584839	9590.772461	2093.405029	12.395384
394.096008	1034.293823	9503.467773	2081.070557	12.359845
394.458344	1037.563110	9393.796875	2062.420654	12.264587
394.820587	1036.671631	9189.612305	2050.606689	12.436434
395.182831	1032.659302	8961.131836	2018.507813	12.434280
395.545013	1033.922363	8728.265625	2000.006470	12.555771
395.907196	1034.293945	8580.625977	1977.715454	12.501722
396.269287	1038.900635	8509.444336	1975.040527	12.531081
396.631409	1039.717896	8461.000000	1967.312988	12.499122
396.993469	1039.792236	8423.921875	1959.362671	12.453335
397.355530	1034.739624	8430.386719	1958.025269	12.484177
397.717499	1037.711792	8494.287109	1961.963257	12.395121
398.079468	1036.077148	8550.682617	1969.913696	12.426953
398.441376	1034.739746	8550.163086	1973.851685	12.495795
398.803284	1035.408325	8493.246094	1964.489624	12.457784
399.165131	1036.671509	8471.030273	1960.848755	12.431163
399.526978	1043.804688	8443.910156	1957.133667	12.342108
399.888763	1041.872681	8431.650391	1951.040894	12.303052
400.250519	1043.878906	8426.747070	1943.907715	12.190775
400.612244	1044.176147	8482.770508	1948.365845	12.155384
400.973938	1047.148315	8580.106445	1967.387329	12.216170
401.335602	1046.553833	8665.555664	1987.597656	12.351274
401.697205	1048.485718	8786.222656	1995.473755	12.238566
402.058807	1042.392944	8935.422852	2015.164063	12.324432
402.420349	1037.191772	9167.395508	2050.680664	12.465726
402.781860	1031.841919	9383.320313	2085.974609	12.622108
403.143341	1040.015259	9583.788086	2088.946533	12.277144
403.504822	1049.525879	9764.864258	2087.906494	11.914405
403.866241	1048.188354	9900.541016	2109.900146	11.993555
404.227631	1040.981079	9987.251953	2136.203369	12.242222
404.588959	1034.665405	10003.523438	2145.862549	12.389504
404.950287	1036.522949	9973.952148	2127.435303	12.206108
405.311554	1034.516724	9879.586914	2113.986572	12.204198
405.672821	1040.089478	9780.616211	2093.627686	12.053487
406.034027	1032.361938	9621.310547	2079.807373	12.195271
406.395203	1033.996704	9473.225586	2049.491943	12.033034
406.756348	1028.869751	9356.942383	2039.089478	12.130295
407.117493	1038.603394	9332.571289	2023.857544	11.879166
407.478516	1038.529175	9359.393555	2030.619019	11.922918
407.839600	1035.631226	9398.179688	2029.430298	11.883925
408.200592	1036.894409	9518.252930	2044.588013	11.881276
408.561554	1039.866455	9651.328125	2066.581787	11.922660
408.922485	1047.593872	9789.753906	2079.287354	11.801356
409.283417	1042.838623	9857.444336	2089.021240	11.868740
409.644257	1046.033813	9963.920898	2087.089111	11.673789
410.005096	1047.445435	10029.159180	2108.785645	11.816678
410.365906	1062.083130	10023.065430	2108.562500	11.678177
410.726715	1057.996460	9961.320313	2099.943604	11.702900
411.087433	1056.287476	9863.983398	2076.240967	11.580253
411.448120	1050.937622	9818.361328	2067.621826	11.596157
411.808807	1053.463989	9780.987305	2072.302979	11.673862
412.169434	1048.559937	9788.492188	2072.377441	11.714250
412.530029	1038.900757	9847.710938	2081.516602	11.836057
412.890564	1037.340332	9958.050781	2088.352295	11.781706
413.251099	1036.745972	10108.290039	2097.565918	11.693930
413.611572	1037.786133	10253.999023	2100.092041	11.526490
413.972076	1043.953369	10367.310547	2112.872314	11.464957
414.332489	1048.337158	10471.631836	2121.639893	11.389888
414.692871	1045.587891	10665.338867	2140.141357	11.378189
415.053223	1033.922363	10846.117188	2155.819092	11.433698
415.413574	1032.139160	11113.754883	2188.809570	11.473066
415.773834	1036.522949	11340.156250	2206.196533	11.352051
416.134094	1036.225708	11598.133789	2236.363281	11.362885
416.494263	1035.036987	11843.184570	2263.483887	11.365934
416.854462	1039.494995	12150.797852	2307.470947	11.411587
417.214630	1045.736450	12566.225586	2338.752441	11.223620
417.574738	1044.473267	12969.243164	2374.492188	11.153414
417.934784	1035.705688	13400.125000	2423.531738	11.224353
418.294861	1033.922485	13876.627930	2473.314697	11.207858
418.654846	1035.111206	14445.860352	2533.499756	11.173041
419.014832	1039.940918	15045.409180	2575.183594	10.961738
419.374756	1042.170044	15692.065430	2633.659912	10.863489
419.734680	1042.764404	16339.911133	2693.548096	10.791449
420.094543	1046.330933	16862.779297	2743.107666	10.727925
420.454376	1047.371094	17171.435547	2781.150635	10.752745
420.814148	1048.337036	17331.630859	2802.401367	10.772171
421.173920	1045.810913	17449.029297	2802.624268	10.710175
421.533691	1043.804688	17542.203125	2797.274414	10.628120
421.893341	1039.197876	17542.500000	2786.277588	10.586243
422.253021	1036.151489	17495.912109	2785.311768	10.626888
422.612640	1027.606567	17437.361328	2772.011719	10.630295
422.972260	1034.442505	17490.638672	2766.141602	10.523083
423.331757	1043.210327	17601.423828	2773.052002	10.447031
423.691315	1050.269043	17741.632813	2798.240234	10.472309
424.050781	1051.977905	17733.830078	2795.491211	10.451557
424.410248	1044.027466	17560.705078	2777.955811	10.498046
424.769653	1041.575562	17247.593750	2738.723877	10.472334
425.128998	1042.912964	16888.117188	2697.337402	10.441169
425.488373	1038.380493	16481.978516	2645.251221	10.404770
425.847656	1036.597290	16090.996094	2596.062744	10.358870
426.206940	1027.829590	15691.842773	2553.487061	10.404092
426.566193	1028.349609	15322.632813	2512.695068	10.384190
426.925385	1033.179321	14944.284180	2462.837891	10.277103
427.284576	1039.420776	14571.506836	2410.454590	10.131725
427.643677	1041.352661	14274.295898	2377.092773	10.094051
428.002777	1040.163940	14065.950195	2359.854492	10.131370
428.361847	1043.804565	13909.989258	2339.198486	10.068206
428.720856	1044.399048	13727.426758	2318.244873	10.043705
429.079865	1040.312378	13582.239258	2299.149170	10.037028
429.438812	1033.105103	13515.144531	2297.365967	10.128640
429.797760	1033.476563	13506.674805	2286.072021	10.042295
430.156616	1033.922363	13421.968750	2270.394043	9.981167
430.515503	1032.882080	13336.520508	2254.716064	9.930672
430.874268	1030.058594	13318.762695	2257.019531	9.984462
431.233093	1028.423950	13426.577148	2265.192627	9.975427
431.591827	1029.612915	13595.614258	2283.174072	9.975816
431.950562	1037.563110	13743.921875	2294.468018	9.891936
432.309204	1042.764404	13872.614258	2297.439941	9.779347
432.667877	1043.061646	14041.801758	2306.876709	9.722596
433.026459	1038.380493	14130.742188	2292.461670	9.578724
433.385010	1043.210083	14191.225586	2287.186279	9.461323
433.743561	1045.067871	14165.963867	2278.492920	9.400463
434.102051	1051.680786	14172.500977	2276.635498	9.335961
434.460510	1045.067871	14220.278320	2281.242188	9.382577
434.818939	1051.383545	14207.348633	2273.737549	9.291253
435.177338	1040.758301	14189.813477	2267.198975	9.327215
435.535675	1043.507446	14132.750000	2253.750244	9.246088
435.894012	1039.792236	14139.808594	2253.378662	9.264007
436.252289	1043.878906	14298.148438	2273.143066	9.274477
436.610535	1044.399048	14387.161133	2282.282471	9.277565
436.968719	1043.433105	14664.905273	2284.511475	9.111191
437.326935	1043.730347	14928.605469	2304.052979	9.076946
437.685028	1049.228760	15248.329102	2332.213623	9.035677
438.043152	1044.176147	15443.820313	2351.904053	9.081668
438.401215	1041.575562	15696.301758	2371.742920	9.076713
438.759277	1036.671509	16031.257813	2388.163818	9.013202
439.117249	1039.866577	16562.671875	2437.054932	9.000875
439.475250	1048.782959	16915.980469	2464.918457	8.924925
439.833130	1040.981201	17284.966797	2500.509521	8.985039
440.191071	1042.764282	17360.310547	2496.497070	8.909016
440.548889	1039.866577	17477.115234	2493.599365	8.844137
440.906708	1046.925415	17437.064453	2479.853516	8.742623
441.264496	1038.752075	17308.298828	2468.410645	8.787329
441.622223	1034.368164	17058.271484	2444.039307	8.797302
441.979950	1038.306152	16753.705078	2415.952881	8.766222
442.337616	1041.352661	16506.720703	2391.210205	8.728260
442.695251	1042.987305	16287.528320	2365.798584	8.677279
443.052887	1039.123535	16227.863281	2355.098877	8.664150
443.410461	1039.643677	16313.682617	2357.402588	8.627442
443.768005	1040.163818	16520.912109	2376.721191	8.633675
444.125458	1038.157715	16745.232422	2393.216309	8.627059
444.482941	1037.265991	17081.750000	2413.055176	8.574842
444.840393	1035.111206	17566.947266	2449.389404	8.554877
445.197754	1038.157593	18046.421875	2484.831543	8.505713
445.555084	1046.330933	18420.314453	2514.775635	8.451974
445.912415	1042.244263	18651.990234	2528.521729	8.440084
446.269714	1042.912964	18753.857422	2528.670166	8.388921
446.626953	1038.974976	18763.591797	2517.153076	8.339690
446.984161	1048.708618	18590.912109	2491.295654	8.223522
447.341309	1038.974976	18385.466797	2475.321045	8.280326
447.698456	1043.135986	18100.662109	2465.512695	8.338705
448.055542	1038.677734	17912.974609	2447.754639	8.350433
448.412598	1043.730347	17577.720703	2408.151123	8.252217
448.769653	1040.461060	17199.966797	2361.191650	8.173088
449.126617	1040.015137	16741.220703	2322.182861	8.166046
449.483582	1039.718018	16456.714844	2302.269775	8.189349
449.840515	1045.736572	16219.690430	2272.994385	8.087924
450.197388	1053.166626	16081.041992	2255.459229	8.000417
450.554230	1052.572266	15944.324219	2240.152588	7.974752
450.911041	1045.216187	15918.020508	2236.437500	8.009393
451.267822	1039.940918	15943.655273	2232.647949	8.002750
451.624573	1038.232056	16013.424805	2239.335205	8.020619
451.981262	1036.820313	15955.395508	2235.397461	8.034126
452.337921	1035.408447	15804.485352	2229.378906	8.084259
452.694580	1042.615845	15497.541992	2191.781738	7.949995
453.051147	1044.473389	15309.778320	2180.487549	7.963476
453.407715	1046.033691	14998.078125	2151.063721	7.920201
453.764221	1044.919067	14879.863281	2146.605713	7.963072
454.120728	1044.993408	14568.608398	2109.602783	7.872225
454.477142	1039.792114	14513.476563	2102.915771	7.890371
454.833557	1040.906860	14430.627930	2085.083008	7.798341
455.189911	1045.513550	14429.885742	2091.101563	7.812006
455.546265	1051.755127	14458.268555	2097.491455	7.800211
455.902557	1052.646729	14497.129883	2104.327393	7.822395
456.258820	1042.764404	14765.585938	2114.803955	7.812093
456.615051	1042.021362	15039.242188	2124.612061	7.734326
456.971252	1037.117432	15385.567383	2138.135010	7.673425
457.327393	1041.278442	15886.218750	2179.447266	7.667049
457.683502	1039.643677	16527.673828	2220.387939	7.623592
458.039612	1046.182251	17378.662109	2297.217285	7.659799
458.395630	1050.343262	18231.212891	2352.498291	7.579099
458.751648	1049.228638	18951.652344	2399.829346	7.544234
459.107605	1047.148315	19606.927734	2433.191406	7.467993
459.463562	1044.250488	19848.189453	2450.949951	7.480876
459.819458	1047.594116	19786.964844	2446.565674	7.465414
460.175323	1044.844849	19273.607422	2401.389893	7.441784
460.531158	1035.408325	18571.445313	2346.108398	7.474323
460.886932	1034.516724	17821.134766	2297.588623	7.524279
461.242676	1035.482666	17114.814453	2249.960693	7.553038
461.598419	1047.445435	16613.791016	2211.249023	7.476408
461.954102	1045.587891	16108.829102	2171.719971	7.476027
462.309723	1047.519775	15706.851563	2137.169189	7.433145
462.665344	1046.330933	15365.356445	2104.253174	7.388228
463.020905	1053.686890	15202.559570	2086.123291	7.296951
463.376373	1049.526001	15220.096680	2088.798340	7.334019
463.731873	1042.021362	15234.511719	2092.364502	7.400697
464.087341	1035.854248	15262.299805	2095.188232	7.446231
464.442749	1033.625122	15343.958008	2088.054932	7.368311
464.798126	1038.826416	15478.891602	2090.952881	7.286161
465.153503	1041.649902	15656.178711	2099.794922	7.240363
465.508820	1048.039917	15805.081055	2107.596436	7.180007
465.864105	1046.108032	15876.335938	2109.528564	7.170629
466.219330	1045.364868	16097.386719	2118.370361	7.128647
466.574524	1041.352661	16118.117188	2122.605957	7.171653
466.929657	1041.649902	16039.875977	2117.553223	7.173537
467.284790	1039.643677	15833.242188	2094.816650	7.132632
467.639893	1037.488892	15606.915039	2087.460693	7.206679
467.994934	1042.467041	15429.183594	2069.330811	7.137582
468.349945	1037.117310	15211.625000	2056.476318	7.191495
468.704926	1038.900513	15096.381836	2037.974976	7.107066
469.059875	1033.625122	14967.168945	2033.516968	7.176149
469.414764	1041.798462	14951.789063	2027.423950	7.085738
469.769653	1044.027466	14928.977539	2019.622437	7.026276
470.124451	1043.730347	15029.434570	2025.269409	7.018160
470.479248	1035.334106	15034.785156	2020.068237	7.034091
470.834015	1033.402222	15056.555664	2027.795532	7.091082
471.188721	1026.789185	15185.174805	2022.445679	7.032274
471.543365	1031.173096	15440.700195	2046.668335	7.047388
471.898010	1038.603394	15705.067383	2054.247314	6.924941
472.252625	1042.095581	15985.561523	2077.578369	6.929335
472.607178	1046.256592	16237.151367	2095.188232	6.905003
472.961700	1044.844849	16357.743164	2110.197021	6.957221
473.316193	1055.172852	16412.060547	2116.587158	6.911650
473.670654	1054.058350	16316.579102	2100.983643	6.859452
474.025055	1046.108032	16361.383789	2090.804199	6.821269
474.379456	1042.244141	16385.236328	2075.720703	6.735821
474.733795	1039.792358	16537.779297	2088.798096	6.768658
475.088104	1042.838745	16797.318359	2111.014404	6.780139
475.442383	1043.433105	17105.228516	2148.091553	6.877553
475.796570	1040.758179	17385.349609	2164.512451	6.875389
476.150787	1037.340332	17748.541016	2199.286377	6.953097
476.504944	1033.030884	18150.595703	2219.793945	6.933013
476.859070	1028.126831	18500.189453	2248.920654	6.987119
477.213135	1027.606567	18744.642578	2241.192871	6.849827
477.567200	1034.739624	18969.410156	2256.647949	6.813107
477.921173	1046.553833	19233.037109	2276.561035	6.763305
478.275146	1049.005737	19462.705078	2314.604004	6.873134
478.629089	1049.526001	19731.533203	2327.755615	6.842036
478.983002	1050.491821	20151.939453	2342.095947	6.761813
479.336823	1048.857178	20675.103516	2362.157959	6.691554
479.690643	1046.999634	21295.009766	2414.467041	6.753589
480.044403	1040.906860	22064.044922	2478.070313	6.836103
480.398163	1043.581665	23130.068359	2545.611328	6.800673
480.751862	1041.352661	24670.289063	2635.963623	6.748552
481.105499	1042.690063	26757.228516	2760.494873	6.680286
481.459137	1044.399048	29772.802734	2957.842773	6.660460
481.812744	1043.210083	33706.167969	3209.134521	6.631134
482.166290	1041.055542	38574.925781	3531.013916	6.633897
482.519806	1039.866577	43548.972656	3858.466064	6.630579
482.873291	1036.225708	47876.363281	4187.552734	6.727835
483.226715	1035.408447	50716.511719	4410.683594	6.793881
483.580139	1033.625122	51804.078125	4523.475098	6.873782
483.933502	1037.043091	51193.234375	4446.720215	6.798118
484.286804	1032.807739	49064.167969	4262.449707	6.724028
484.640106	1038.752075	45994.277344	4021.783203	6.635517
484.993347	1034.739624	42920.519531	3817.376709	6.643394
485.346558	1036.300171	40714.996094	3669.885498	6.637279
485.699738	1029.538452	39857.316406	3607.917236	6.640553
486.052887	1033.402222	40126.957031	3624.635498	6.628288
486.405975	1035.036743	41175.667969	3681.551514	6.593106
486.759064	1036.077026	42253.730469	3753.030518	6.591723
487.112061	1041.129517	42804.312500	3801.030273	6.608454
487.464996	1044.176147	42516.312500	3793.748047	6.629926
487.817963	1042.021362	41406.082031	3709.042969	6.607416
488.170868	1037.265991	39661.300781	3580.127930	6.583625
488.523743	1040.758179	37625.261719	3438.432861	6.553799
488.876587	1041.426880	35739.535156	3317.096436	6.558483
489.229401	1044.993530	34548.761719	3232.168213	6.528145
489.582153	1041.872681	34256.750000	3216.341797	6.546672
489.934845	1045.587891	34858.601563	3248.292236	6.514368
490.287537	1040.981201	35990.828125	3312.043945	6.498062
490.640198	1041.798584	37249.886719	3396.749023	6.503934
490.992798	1038.380615	37949.003906	3444.154297	6.517835
491.345337	1037.488892	37822.683594	3444.005615	6.542079
491.697876	1033.996704	36619.054688	3361.975342	6.542011
492.050354	1039.866577	34732.433594	3245.691406	6.546918
492.402832	1044.547607	32272.570313	3084.454346	6.532295
492.755219	1048.485718	29708.755859	2929.012939	6.561443
493.107605	1041.501343	27349.494141	2783.528320	6.621665
493.459930	1037.043091	25530.562500	2669.250977	6.663836
493.812225	1035.779907	24250.994141	2582.390869	6.662057
494.164490	1041.129639	23516.587891	2535.208740	6.647602
494.516724	1039.940796	23226.289063	2517.450439	6.659544
494.868896	1043.135864	23259.427734	2507.048096	6.589364
495.221039	1045.513672	23466.580078	2508.237061	6.523880
495.573120	1048.039917	23635.025391	2514.032471	6.490430
495.925201	1048.411499	23849.835938	2536.323242	6.525521
496.277222	1050.640625	24016.125000	2555.121826	6.551054
496.629211	1053.984253	24120.000000	2563.889648	6.546017
496.981140	1048.634277	24036.187500	2550.143799	6.531837
497.333069	1043.581665	23821.750000	2519.976807	6.481624
497.684967	1040.683960	23430.990234	2495.977295	6.499658
498.036804	1042.541382	22989.335938	2474.280518	6.523682
498.388580	1042.764404	22525.759766	2449.612061	6.548656
498.740326	1040.238159	22115.164063	2417.736084	6.536193
499.092072	1033.699585	21631.380859	2391.061523	6.589877
499.443756	1036.894531	21190.466797	2369.439209	6.611953
499.795410	1041.575562	20804.242188	2345.142334	6.596108
500.147003	1047.891235	20545.964844	2315.347168	6.500416
500.498566	1037.563110	20280.630859	2300.114990	6.561074
500.850098	1034.516724	20113.226563	2287.037842	6.565020
501.201599	1033.104980	20005.708984	2286.889404	6.608394
501.553009	1043.284546	19971.900391	2272.771729	6.495389
501.904449	1038.677734	19961.724609	2273.885986	6.527534
502.255859	1041.129761	20024.285156	2273.885986	6.493948
502.607178	1036.745972	20122.216797	2297.365723	6.605128
502.958405	1039.420776	20182.847656	2309.179932	6.632873
503.309692	1038.083374	20192.656250	2315.198486	6.667417
503.660919	1040.832520	20205.361328	2308.957031	6.617040
504.012115	1045.885132	20202.611328	2309.551514	6.596463
504.363251	1048.560059	20192.208984	2306.951172	6.573413
504.714294	1046.033813	20140.867188	2296.177002	6.547023
505.065369	1041.204102	20110.033203	2287.781006	6.537250
505.416443	1041.426880	20015.519531	2281.316650	6.534646
505.767395	1042.095703	19976.287109	2290.901611	6.595507
506.118317	1038.529175	19904.361328	2279.384766	6.577264
506.469238	1031.470337	20017.152344	2295.136719	6.655891
506.820160	1035.482788	20142.798828	2303.607178	6.636852
507.170929	1039.123657	20416.234375	2319.953613	6.610015
507.521729	1040.461060	20603.773438	2333.774170	6.610911
507.872498	1034.516724	20871.412109	2344.325195	6.602891
508.223236	1033.625122	21098.853516	2379.247314	6.706239
508.573883	1036.225708	21327.779297	2395.816895	6.700282
508.924500	1034.591187	21498.228516	2419.668213	6.768479
509.275116	1035.185669	21651.515625	2421.674072	6.725195
509.625702	1030.950317	21831.849609	2426.801025	6.710531
509.976196	1031.619019	22013.962891	2432.745361	6.677645
510.326660	1035.705688	22231.820313	2454.739014	6.694780
510.677124	1040.683960	22425.453125	2468.708008	6.677762
511.027557	1041.798462	22580.150391	2474.354736	6.651188
511.377869	1042.615845	22685.734375	2466.032959	6.576765
511.728180	1044.324707	22677.859375	2465.512939	6.569376
512.078430	1045.959473	22638.107422	2463.581055	6.565449
512.428650	1036.671509	22535.943359	2465.364502	6.645309
512.778931	1035.259888	22452.720703	2462.020752	6.661671
513.129028	1037.488892	22303.744141	2460.237305	6.690169
513.479126	1040.163818	22130.841797	2450.503906	6.687031
513.829285	1043.507446	22008.166016	2431.927979	6.622672
514.179382	1040.461060	21940.849609	2413.575439	6.569803
514.529297	1044.176147	21919.896484	2403.321533	6.510651
514.879272	1045.067871	21994.197266	2416.101807	6.544587
515.229187	1048.931519	22089.974609	2429.327393	6.560492
515.579163	1045.439331	22454.357422	2459.494385	6.604981
515.928955	1042.392944	22938.289063	2494.045166	6.629791
516.278748	1040.683960	23720.994141	2537.215088	6.598372
516.628540	1043.953247	24509.494141	2583.431396	6.560591
516.978333	1042.392944	25374.677734	2624.223633	6.500954
517.327942	1039.494995	26187.546875	2678.093018	6.515805
517.677612	1038.752075	26846.539063	2727.578613	6.543864
518.027222	1037.191772	27290.125000	2778.030273	6.631025
518.376831	1035.928589	27356.703125	2782.934326	6.637364
518.726379	1031.916138	27185.507813	2772.605713	6.655643
519.075867	1029.241333	26637.822266	2724.235107	6.618851
519.425293	1029.464233	26017.693359	2690.055664	6.645495
519.774658	1035.408447	25323.630859	2641.090088	6.610948
520.124084	1038.974976	24772.525391	2612.335205	6.629266
520.473389	1037.191650	24276.482422	2584.397461	6.657715
520.822693	1035.259766	23965.896484	2555.419189	6.629382
521.171997	1035.854126	23787.197266	2534.093994	6.585281
521.521240	1044.176147	23740.982422	2517.376221	6.490781
521.870361	1044.547729	23769.068359	2525.995361	6.519159
522.219482	1044.101929	23957.875000	2542.862061	6.540870
522.568604	1040.683960	24341.275391	2579.864502	6.605757
522.917664	1038.826294	24831.226563	2602.898682	6.573832
523.266724	1043.358765	25444.669922	2635.963379	6.526718
523.615662	1036.002808	26258.656250	2677.349854	6.507432
523.964600	1040.089478	27349.271484	2760.123047	6.537769
524.313538	1030.727417	28557.208984	2848.394775	6.603341
524.662354	1036.225708	29827.490234	2935.552002	6.596884
525.011169	1034.739746	31003.037109	3012.083740	6.598119
525.359985	1045.142090	32208.224609	3081.556641	6.534702
525.708740	1041.798462	33392.160156	3162.843750	6.556481
526.057434	1042.690063	34896.941406	3259.065674	6.546816
526.406067	1038.454834	36826.062500	3390.061523	6.571008
526.754700	1044.696289	39531.644531	3558.283203	6.531011
527.103333	1043.284546	42735.355469	3770.268799	6.540775
527.451782	1047.222534	46206.332031	4013.535889	6.568583
527.800293	1045.364868	48911.175781	4221.360352	6.635207
528.148743	1051.309082	50532.019531	4351.910156	6.670480
528.497131	1046.256714	50529.863281	4353.990723	6.684505
528.845642	1046.256714	49179.339844	4251.601563	6.659338
529.193909	1044.176147	46635.511719	4066.588135	6.629356
529.542175	1040.683838	43236.832031	3821.686279	6.590655
529.890503	1043.210205	39785.617188	3584.214600	6.558716
530.238770	1032.287720	36717.656250	3370.965820	6.553606
530.586914	1031.990479	34703.457031	3231.648193	6.532706
530.934998	1019.433289	33575.394531	3157.568359	6.567568
531.283142	1032.807739	33496.261719	3158.534424	6.548060
531.631226	1041.575562	34091.949219	3204.304932	6.543736
531.979248	1053.761230	35300.109375	3265.901611	6.459493
532.327148	1048.708618	36574.847656	3339.313232	6.447659
532.675110	1049.080078	37553.859375	3394.446045	6.424819
533.023071	1041.426880	37777.140625	3421.714844	6.479493
533.370850	1040.683838	37094.742188	3383.820313	6.498953
533.718689	1038.529175	35764.207031	3296.291748	6.501709
534.066467	1052.423706	34082.136719	3185.060547	6.456722
534.414246	1047.445435	32527.203125	3082.968750	6.466134
534.761963	1045.587891	31382.421875	3021.668701	6.513801
535.109619	1032.361938	30783.541016	2978.647461	6.541877
535.457153	1035.779907	30620.892578	2963.638672	6.516314
535.804749	1035.482788	30570.888672	2958.139893	6.509669
536.152344	1036.374268	30472.882813	2957.397217	6.525988
536.499817	1037.117310	30126.484375	2934.288818	6.521873
536.847229	1034.516724	29634.080078	2898.623291	6.517955
537.194641	1036.077026	28914.013672	2844.679688	6.487577
537.542114	1035.928467	28186.812500	2784.420166	6.439907
537.889404	1039.569336	27550.484375	2739.392578	6.411787
538.236694	1039.049316	27120.123047	2720.073975	6.445381
538.583984	1039.049194	27230.388672	2744.371094	6.511014
538.931213	1038.306152	27969.773438	2801.881592	6.548382
539.278381	1041.575562	29426.330078	2887.106445	6.501839
539.625488	1038.603394	31258.783203	2995.514404	6.475511
539.972595	1039.420776	33566.921875	3140.701904	6.460014
540.319641	1038.157593	35846.082031	3293.616455	6.479728
540.666687	1040.386719	37726.238281	3415.993408	6.475539
541.013611	1035.557007	38787.207031	3469.119385	6.446242
541.360596	1034.219604	38926.304688	3470.679932	6.429998
541.707458	1037.934692	38242.871094	3435.683350	6.444705
542.054260	1038.900757	36782.667969	3354.841797	6.479286
542.401062	1040.312378	35048.515625	3249.332031	6.495549
542.747864	1038.454834	33161.898438	3124.949463	6.495240
543.094666	1039.272217	31410.583984	3007.774170	6.481452
543.441284	1042.541504	29675.615234	2900.258057	6.488009
543.787903	1037.191772	28313.794922	2798.760742	6.458169
544.134460	1040.832520	27131.564453	2721.188721	6.440433
544.481079	1034.516724	26410.677734	2676.458252	6.470410
544.827637	1040.535278	25851.552734	2649.040527	6.483028
545.174072	1038.529175	25592.751953	2638.786865	6.517240
545.520508	1046.108032	25506.562500	2622.291748	6.443804
545.866943	1044.250488	25454.552734	2609.437256	6.411993
546.213318	1040.461060	25386.343750	2600.000977	6.405765
546.559631	1036.077271	25102.654297	2576.966797	6.402612
546.905823	1042.318604	24590.556641	2558.391113	6.438157
547.252136	1046.405273	23819.521484	2501.326660	6.388767
547.598389	1047.742676	22931.750000	2444.856689	6.384178
547.944458	1043.730347	22069.244141	2381.327881	6.361783
548.290588	1041.798462	21199.162109	2323.594482	6.358947
548.636658	1035.854248	20333.460938	2279.533203	6.444731
548.982727	1030.281616	19597.492188	2235.620117	6.491758
549.328735	1034.516846	19080.642578	2204.264404	6.481987
549.674622	1041.798462	18697.314453	2179.818848	6.445693
550.020569	1049.674561	18492.310547	2160.277100	6.367171
550.366455	1043.581665	18342.962891	2148.314453	6.385967
550.712280	1041.501221	18351.433594	2150.320801	6.405684
551.058044	1034.293823	18417.861328	2155.893555	6.452068
551.403748	1039.123535	18592.623047	2174.246338	6.466647
551.749512	1034.739624	18766.638672	2178.927490	6.452709
552.095154	1039.494995	18908.705078	2178.778809	6.375680
552.440735	1026.863525	18950.166016	2188.289795	6.479979
552.786316	1028.423950	18902.462891	2176.029541	6.420516
553.131897	1024.783081	18732.087891	2166.816162	6.449502
553.477417	1028.275269	18475.222656	2130.482178	6.317477
553.822815	1033.625122	18115.523438	2114.878418	6.329819
554.168213	1036.968750	17732.267578	2093.182129	6.326412
554.513672	1043.804688	17361.052734	2074.086182	6.314064
554.859009	1048.039917	17054.851563	2056.625244	6.300976
555.204285	1052.423828	16883.955078	2052.909912	6.319579
555.549500	1049.674561	16781.935547	2053.207275	6.378821
555.894714	1040.683960	16719.226563	2049.491943	6.434322
556.239990	1029.166992	16586.818359	2040.501343	6.500559
556.585022	1037.860474	16474.919922	2021.776978	6.373730
556.930115	1044.621948	16396.158203	2009.814087	6.287268
557.275146	1047.891235	16301.941406	1994.359375	6.204701
557.620178	1039.346313	16190.933594	1990.569946	6.278046
557.965149	1038.454712	16067.666992	1984.328491	6.293569
558.310059	1048.039917	16014.614258	1979.498657	6.223594
558.654968	1053.984131	15952.497070	1973.331665	6.170733
558.999756	1044.993530	15981.252930	1970.433960	6.195931
559.344604	1037.786133	16034.675781	1970.359497	6.218445
559.689331	1037.711914	16106.450195	1988.043579	6.306644
560.033997	1050.194702	16150.734375	1981.059204	6.164445
560.378723	1050.120361	16198.437500	1997.925903	6.256837
560.723389	1047.371094	16243.317383	1987.077759	6.183930
561.067932	1042.095581	16297.708008	1998.743164	6.270791
561.412476	1041.798462	16295.627930	1988.192261	6.204303
561.757019	1047.371216	16254.612305	1977.046875	6.113375
562.101501	1042.318481	16194.574219	1969.319336	6.117907
562.445862	1045.290649	16106.229492	1963.375000	6.095798
562.790222	1036.300171	16049.015625	1969.839355	6.218323
563.134644	1042.021362	16032.000000	1964.192383	6.151917
563.478943	1041.055420	16102.069336	1960.625977	6.105635
563.823181	1047.371094	16263.156250	1951.486694	5.941958
564.167358	1045.290649	16446.240234	1957.430786	5.922623
564.511536	1044.770508	16708.750000	1964.860962	5.873925
564.855774	1037.488770	17031.818359	2001.046509	6.024371
565.199768	1035.779907	17398.279297	2023.337524	6.035494
565.543823	1038.603394	17721.572266	2051.795166	6.073210
565.887817	1041.352661	17959.191406	2050.532227	5.965180
566.231812	1033.253662	17992.107422	2056.996582	6.036628
566.575745	1032.956421	17879.611328	2039.238281	5.973185
566.919617	1035.334106	17639.837891	2033.888550	6.013757
567.263428	1039.420776	17328.359375	2012.637817	5.974711
567.607239	1035.036987	17089.998047	2003.424194	6.031701
567.950989	1036.671509	16870.580078	1985.368774	5.991555
568.294678	1042.467163	16769.976563	1976.972534	5.941852
568.638367	1040.683960	16645.220703	1963.151978	5.911537
568.981995	1036.002808	16579.166016	1959.511230	5.941573
569.325623	1033.253540	16629.023438	1958.842407	5.934871
569.669128	1035.334106	16756.080078	1971.251099	5.953388
570.012573	1041.649780	17006.851563	1974.966187	5.845942
570.356140	1038.083374	17264.533203	1984.922852	5.835161
570.699524	1038.083374	17529.052734	2004.241577	5.858711
571.042908	1035.482666	17823.291016	2026.458008	5.902946
571.386230	1048.114136	18026.953125	2042.730469	5.857976
571.729492	1052.275024	18180.761719	2050.532227	5.828053
572.072815	1056.064575	18149.406250	2051.869629	5.825690
572.416016	1043.804565	18069.976563	2046.742676	5.890567
572.759094	1041.872681	17881.765625	2022.296997	5.822034
573.102234	1037.265991	17669.261719	2011.300293	5.856389
573.445374	1044.250488	17487.591797	1999.337524	5.808351
573.788391	1046.182373	17375.468750	1996.959961	5.822530
574.131409	1047.073975	17301.611328	1983.956909	5.763824
574.474365	1035.854248	17220.322266	1970.136719	5.772710
574.817261	1034.368164	17131.382813	1964.935547	5.780993
575.160156	1036.225708	16973.416016	1958.099609	5.784419
575.502930	1039.123657	16752.291016	1951.115112	5.803995
575.845703	1039.940918	16483.835938	1931.573364	5.773365
576.188477	1037.711792	16213.226563	1911.511719	5.757959
576.531250	1042.987305	15918.690430	1892.192993	5.708676
576.873901	1041.427002	15561.664063	1869.456543	5.702590
577.216431	1039.123657	15240.304688	1848.280273	5.697812
577.559082	1040.758179	14915.973633	1830.298950	5.690295
577.901611	1038.157593	14655.468750	1810.757324	5.673658
578.244080	1037.340332	14346.518555	1783.934082	5.609616
578.586487	1042.838745	14123.536133	1768.776245	5.549685
578.928955	1061.785767	13929.234375	1778.212524	5.567745
579.271301	1069.884888	13784.641602	1772.937134	5.529419
579.613647	1059.482544	13579.120117	1751.909546	5.530727
579.955872	1040.386719	13441.362305	1721.817017	5.494973
580.298157	1035.259888	13337.487305	1712.677734	5.506465
580.640320	1038.529175	13304.942383	1711.711914	5.488016
580.982483	1040.015137	13219.567383	1709.334351	5.495433
581.324524	1042.689941	13137.092773	1702.869751	5.458557
581.666626	1039.940796	13034.778320	1694.399414	5.456169
582.008728	1038.603394	12960.921875	1683.402466	5.408336
582.350647	1030.207397	12930.160156	1679.761719	5.458461
582.692566	1032.956421	12874.656250	1668.913452	5.370488
583.034424	1035.111206	12803.993164	1668.764771	5.384144
583.376343	1039.420776	12700.340820	1661.483032	5.334590
583.718201	1042.021362	12680.874023	1667.427368	5.373434
584.059937	1041.947144	12673.518555	1668.244751	5.384463
584.401611	1036.745850	12627.598633	1664.380981	5.414918
584.743347	1038.974976	12580.043945	1661.854858	5.397072
585.085022	1042.690063	12495.786133	1656.876465	5.362624
585.426514	1046.628052	12467.773438	1667.501587	5.436176
585.768127	1042.244263	12484.195313	1671.811157	5.502269
586.109619	1041.278320	12524.987305	1672.257202	5.494556
586.451172	1039.792236	12578.039063	1670.325195	5.464721
586.792542	1038.009155	12578.411133	1662.374878	5.410260
587.133850	1029.835571	12600.627930	1654.201538	5.396052
587.475220	1031.619019	12683.176758	1646.028198	5.273193
587.816589	1029.538452	12755.547852	1642.461548	5.227039
588.157776	1037.265991	12829.554688	1645.433716	5.157334
588.498962	1042.244263	12868.637695	1648.257202	5.124241
588.840210	1039.940918	12960.475586	1646.994141	5.092500
589.181335	1037.191772	13063.458008	1655.241821	5.139168
589.522400	1033.327881	13113.910156	1661.854858	5.202787
589.863403	1041.723999	13093.328125	1664.455200	5.167206
590.204407	1038.826294	13000.375000	1656.802124	5.166353
590.545410	1035.259766	12904.450195	1646.696777	5.151464
590.886353	1032.584839	12762.086914	1647.959961	5.246387
591.227112	1034.293823	12687.635742	1639.489624	5.193324
591.567932	1036.448608	12609.915039	1641.644409	5.229166
591.908752	1033.105103	12580.268555	1639.266602	5.249441
592.249512	1033.253662	12590.967773	1635.625854	5.211863
592.590149	1033.402222	12616.230469	1625.223633	5.109472
592.930786	1038.083374	12678.793945	1620.765259	5.005552
593.271423	1038.009033	12749.159180	1622.325684	4.989404
593.612000	1040.981079	12902.519531	1629.384277	4.960598
593.952576	1044.473267	13051.421875	1633.768188	4.907949
594.292969	1044.770508	13197.054688	1643.947754	4.930573
594.633484	1044.473267	13357.846680	1651.749634	4.931844
594.973877	1042.912964	13591.528320	1666.758789	4.971432
595.314209	1038.529053	13852.850586	1670.994019	4.935610
595.654480	1037.934570	14163.362305	1690.386841	4.970903
595.994812	1038.009033	14491.928711	1701.458008	4.931269
596.335022	1040.981201	14748.792969	1714.535278	4.913651
596.675171	1033.179321	14817.894531	1712.380493	4.927205
597.015320	1026.863647	14714.242188	1692.987427	4.866701
597.355408	1034.070923	14428.846680	1677.458130	4.803270
597.695496	1045.216431	14053.393555	1664.603882	4.761524
598.035461	1054.355591	13546.872070	1642.833130	4.710640
598.375366	1045.439331	13107.742188	1618.461914	4.750524
598.715271	1042.838745	12713.864258	1592.010132	4.705425
599.055176	1038.900635	12388.343750	1585.843140	4.819113
599.395081	1046.925293	12140.172852	1585.917358	4.858740
599.734802	1040.832520	11946.464844	1567.564453	4.829907
600.074524	1035.408325	11862.950195	1555.973267	4.807785
600.414246	1025.228882	11822.454102	1539.923828	4.766919
600.753906	1030.727295	11840.137695	1547.354126	4.779418
601.093506	1033.179321	11935.617188	1547.651367	4.718872
601.433044	1043.953369	12110.674805	1557.385132	4.639421
601.772583	1046.182495	12336.554688	1557.013550	4.524484
602.112122	1049.600220	12603.301758	1578.932739	4.581497
602.451538	1044.844849	12911.879883	1587.180542	4.570103
602.790894	1042.541504	13257.536133	1610.288574	4.647952
603.130310	1045.587891	13692.952148	1627.304077	4.599505
603.469604	1040.683960	14090.395508	1650.337891	4.671781
603.808838	1038.603394	14461.984375	1660.591431	4.633617
604.148010	1035.482788	14639.046875	1663.712280	4.618124
604.487305	1041.947144	14699.901367	1662.523438	4.543699
604.826416	1042.392822	14588.670898	1652.195313	4.501624
605.165527	1043.061523	14329.206055	1638.003540	4.477913
605.504456	1040.906738	13954.570313	1613.780884	4.436186
605.843445	1043.284546	13515.664063	1602.561157	4.484121
606.182434	1044.176147	13075.049805	1582.945313	4.478221
606.521423	1041.352661	12677.010742	1568.679077	4.531986
606.860229	1038.752075	12336.778320	1548.394409	4.510897
607.199036	1042.912964	12158.823242	1537.100464	4.445767
607.537903	1047.594116	12120.854492	1543.341797	4.476980
607.876648	1054.875732	12236.023438	1549.954712	4.427801
608.215271	1046.553833	12423.340820	1558.053711	4.495996
608.553955	1051.457886	12673.221680	1561.323120	4.387159
608.892578	1053.835449	12836.686523	1571.799805	4.395917
609.231140	1056.584595	12939.819336	1576.480835	4.375040
609.569641	1051.903564	12911.657227	1569.793579	4.366786
609.908081	1042.912964	12817.961914	1547.354126	4.283984
610.246521	1043.433105	12603.895508	1533.905273	4.242669
610.584961	1035.259888	12308.914063	1527.812500	4.369059
610.923340	1033.104980	12033.622070	1521.645386	4.441067
611.261597	1035.185425	11684.252930	1509.905640	4.457857
611.599854	1042.912964	11389.121094	1494.227661	4.362127
611.938110	1047.891235	11089.979492	1474.389038	4.247103
612.276245	1039.792358	10909.050781	1459.677124	4.254471
612.614319	1041.501099	10721.288086	1449.646118	4.216467
612.952393	1040.758179	10538.726563	1449.423218	4.302657
613.290466	1047.296875	10410.331055	1434.562866	4.136117
613.628479	1049.451782	10266.926758	1431.813477	4.148226
613.966370	1045.439331	10197.676758	1426.092163	4.159123
614.304260	1040.238159	10080.650391	1430.327515	4.314951
614.642151	1044.993530	10044.018555	1418.958984	4.155622
614.979980	1047.891357	9968.527344	1420.519409	4.177147
615.317749	1055.692993	9929.444336	1419.627808	4.101251
615.655396	1047.073975	9863.686523	1412.791992	4.148056
615.993164	1047.891235	9864.354492	1409.894165	4.105988
616.330811	1041.278320	9870.669922	1409.225464	4.167299
616.668396	1040.015137	9870.819336	1419.702026	4.299573
617.005859	1040.238037	9878.545898	1416.878540	4.261455
617.343445	1039.494995	9868.664063	1416.878540	4.274282
617.680908	1036.597290	9876.020508	1411.380249	4.239903
618.018311	1033.773804	9866.732422	1406.550415	4.220292
618.355652	1036.002930	9863.166016	1395.330688	4.070705
618.692993	1047.594116	9855.067383	1391.169922	3.900958
619.030273	1051.160645	9823.414063	1390.055298	3.863256
619.367554	1051.532104	9773.111328	1398.451538	3.977714
619.704712	1043.135864	9741.680664	1396.222290	4.059144
620.041870	1041.872681	9720.801758	1399.714478	4.123110
620.379028	1038.603516	9721.321289	1393.695923	4.089646
620.716064	1041.203979	9688.406250	1395.256470	4.094417
621.053040	1038.231812	9651.403320	1386.860229	4.047619
621.389954	1041.649780	9618.041992	1390.575562	4.068445
621.726929	1038.306274	9579.850586	1389.683960	4.113749
622.063843	1045.364990	9558.227539	1391.392944	4.064766
622.400635	1047.668335	9553.695313	1384.333984	3.957966
622.737427	1052.720947	9604.518555	1379.652954	3.822962
623.074219	1053.166748	9610.090820	1389.237915	3.927476
623.410889	1056.510376	9636.691406	1385.077148	3.829369
623.747559	1056.213257	9673.249023	1394.067749	3.920774
624.084167	1051.011963	9763.229492	1375.863647	3.728691
624.420715	1044.993530	9880.924805	1385.374390	3.852235
624.757324	1042.615723	10027.671875	1380.767456	3.763490
625.093750	1044.696289	10204.067383	1395.702271	3.832206
625.430176	1042.838745	10357.501953	1406.624878	3.905521
625.766602	1041.427002	10503.729492	1424.234741	4.045609
626.102905	1037.414673	10698.774414	1427.578247	4.038392
626.439209	1034.070923	10833.188477	1425.720703	3.996786
626.775452	1032.139160	10918.635742	1419.330566	3.916366
627.111694	1032.956421	10878.735352	1420.593750	3.937091
627.447876	1035.557007	10780.582031	1417.175781	3.916037
627.783997	1035.185547	10609.387695	1405.064453	3.863287
628.120056	1037.563232	10408.028320	1400.086060	3.868782
628.456055	1041.055542	10255.039063	1398.599976	3.880455
628.792053	1043.730347	10093.875977	1392.730103	3.856289
629.128052	1042.467163	9939.624023	1389.237915	3.897546
629.463928	1039.940796	9847.191406	1377.646606	3.834407
629.799744	1035.482788	9776.752930	1381.659058	3.960251
630.135559	1036.820190	9721.619141	1374.080078	3.883336
630.471375	1037.786133	9613.880859	1367.690063	3.846785
630.807068	1044.027466	9518.921875	1365.015259	3.787514
631.142700	1040.089478	9420.248047	1359.442627	3.810825
631.478333	1040.981079	9307.902344	1364.569580	3.914257
631.813965	1036.225708	9221.859375	1365.758423	4.025744
632.149475	1033.402222	9172.670898	1368.284668	4.114405
632.484924	1036.448608	9165.388672	1362.191772	4.007204
632.820435	1033.476563	9177.054688	1348.000000	3.862226
633.155884	1044.027466	9204.174805	1340.495361	3.633119
633.491150	1050.789185	9244.967773	1342.947388	3.565436
633.826477	1052.349487	9268.818359	1346.662476	3.581989
634.161804	1049.154419	9286.874023	1347.331177	3.619652
634.497009	1040.609619	9234.490234	1341.312866	3.669851
634.832153	1043.358765	9176.756836	1339.455078	3.640500
635.167297	1048.039917	9076.968750	1335.294067	3.577739
635.502380	1039.495117	8988.176758	1334.030884	3.705467
635.837463	1038.603394	8862.754883	1322.885620	3.633394
636.172424	1039.866577	8758.507813	1320.507935	3.635891
636.507324	1045.662231	8673.875977	1320.285034	3.600093
636.842224	1044.250366	8615.177734	1322.662720	3.677388
637.177124	1032.882202	8509.295898	1326.229248	3.923633
637.511963	1034.962524	8417.235352	1322.365601	3.893152
637.846741	1035.036865	8335.799805	1319.541870	3.896922
638.181396	1035.557007	8283.043945	1306.836182	3.743079
638.516113	1035.705566	8247.602539	1304.161255	3.722400
638.850769	1035.854126	8216.469727	1304.830200	3.745864
639.185303	1035.631348	8177.906250	1300.446289	3.707711
639.519836	1035.036865	8105.312500	1297.919922	3.718144
639.854370	1037.637573	8015.554688	1297.474121	3.723698
640.188843	1042.838745	7955.963379	1299.926147	3.718831
640.523254	1043.284546	7906.403809	1303.269653	3.788148
640.857605	1043.656128	7861.896973	1296.285278	3.705195
641.191895	1044.919067	7791.457520	1296.656860	3.731362
641.526184	1046.330933	7741.972168	1292.644409	3.678714
641.860413	1045.959351	7711.730469	1296.879639	3.764310
642.194580	1044.547729	7711.433594	1299.480225	3.823862
642.528748	1034.516724	7683.570313	1296.508179	3.940282
642.862793	1040.461060	7676.065918	1292.941650	3.804937
643.196838	1044.547607	7636.313965	1294.947876	3.798682
643.530823	1051.755005	7627.396973	1287.369019	3.583133
643.864746	1043.656128	7587.422363	1292.792969	3.807239
644.198669	1037.117310	7562.457031	1286.254395	3.817994
644.532532	1037.265991	7545.218750	1288.557739	3.861303
644.866333	1041.278320	7541.875000	1284.693970	3.744512
645.200073	1043.210205	7563.125000	1283.505249	3.685555
645.533813	1040.906738	7572.338379	1282.613647	3.700673
645.867554	1048.634155	7600.573730	1280.087402	3.532591
646.201172	1050.120239	7613.428223	1285.362915	3.584209
646.534729	1053.389648	7642.926270	1292.495728	3.628572
646.868225	1042.838745	7628.511719	1289.969604	3.752553
647.201782	1036.300049	7623.384766	1283.356567	3.750620
647.535217	1034.739746	7627.471191	1277.709595	3.685420
647.868591	1037.711792	7633.639160	1280.755981	3.684762
648.201965	1032.733521	7614.097168	1286.105835	3.849845
648.535278	1026.566406	7566.766113	1287.517578	3.989957
648.868591	1025.600464	7535.039063	1291.381348	4.083008
649.201782	1032.807861	7525.007813	1288.854980	3.943919
649.534912	1035.557007	7524.041504	1288.186157	3.893500
649.868103	1034.665405	7511.931152	1284.471069	3.856653
650.201172	1036.968750	7535.410156	1292.198608	3.927555
650.534180	1039.940796	7531.992188	1290.861206	3.865041
650.867188	1045.810791	7554.506348	1294.204712	3.816340
651.200134	1047.148315	7552.128906	1287.963257	3.702009
651.533020	1043.061646	7543.732422	1291.381226	3.819907
651.865845	1038.974976	7520.029785	1282.910767	3.763829
652.198608	1036.968872	7484.290527	1285.734253	3.858430
652.531433	1041.501221	7453.974609	1291.083984	3.892145
652.864136	1039.940796	7412.885254	1302.229492	4.115660
653.196777	1098.491333	7429.900391	1347.182617	3.927898
653.529358	1101.909302	7387.845215	1344.730591	3.862930
653.861938	1096.856689	7332.563965	1335.442871	3.826129
654.194519	1034.442505	7231.066406	1277.115112	3.916207
654.526978	1037.043091	7215.388184	1275.034790	3.852030
654.859375	1039.123535	7213.233887	1283.282349	3.954559
655.191833	1044.919312	7186.931152	1294.353516	4.061116
655.524170	1034.368286	7158.918457	1292.421509	4.213423
655.856445	1036.151489	7130.089355	1290.415405	4.172407
656.188660	1038.529175	7141.978027	1303.641235	4.343644
656.520874	1042.467285	7162.336426	1303.418335	4.263997
656.853088	1049.971802	7237.902344	1306.761841	4.149853
657.185181	1042.244263	7300.910645	1294.279175	4.026975
657.517212	1044.027466	7432.203613	1304.235718	4.073279
657.849243	1038.008911	7591.731934	1311.220093	4.168794
658.181274	1040.535278	7798.516113	1328.978394	4.268185
658.513123	1040.683960	7975.431152	1328.681274	4.152961
658.844971	1038.974976	8160.890625	1329.424316	4.078248
659.176819	1043.507446	8300.208008	1326.377808	3.898057
659.508667	1039.940918	8378.894531	1334.328247	4.011298
659.840393	1048.411499	8345.756836	1339.083618	3.983258
660.172058	1042.615845	8230.140625	1342.278564	4.169206
660.503662	1044.919067	8040.148438	1340.198120	4.221149
660.835266	1044.844971	7839.829590	1336.780273	4.296335
661.166931	1044.919312	7663.062500	1320.359375	4.161893
661.498413	1043.358765	7507.695801	1310.477173	4.132186
661.829773	1032.287720	7347.053223	1298.514282	4.215937
662.161194	1035.779907	7180.688965	1296.879761	4.249043
662.492615	1033.253784	7037.062500	1294.501953	4.351374
662.823975	1037.860474	6950.201660	1295.988037	4.365911
663.155212	1034.070923	6855.020020	1289.375122	4.385955
663.486450	1037.488892	6785.695801	1282.985107	4.270831
663.817627	1040.312378	6696.384277	1274.365967	4.138094
664.148743	1045.587891	6647.715332	1275.703369	4.107645
664.479858	1048.857300	6583.740723	1274.886108	4.083714
664.810913	1046.033813	6550.156250	1279.270020	4.237482
665.141907	1045.439331	6512.039063	1275.331909	4.205404
665.472778	1041.649902	6498.292969	1273.845825	4.255289
665.803711	1041.278320	6485.066895	1271.022339	4.220296
666.134583	1040.015259	6481.648926	1282.093384	4.448629
666.465454	1039.420776	6480.162598	1289.598022	4.598219
666.796143	1039.643677	6467.457031	1289.078003	4.595484
667.126831	1039.197876	6473.253418	1276.000610	4.357753
667.457458	1040.758301	6463.742188	1271.393921	4.252928
667.788147	1038.752075	6474.218750	1275.257690	4.351156
668.118774	1039.272217	6466.416504	1284.991333	4.527595
668.449219	1041.649902	6485.958984	1285.214233	4.473742
668.779663	1051.383423	6501.414063	1285.437134	4.294539
669.110107	1048.114136	6525.191406	1289.078003	4.399498
669.440552	1047.668457	6534.998535	1300.000366	4.598446
669.770874	1029.092773	6492.571777	1300.966309	4.976198
670.101135	1031.098755	6426.962402	1293.164551	4.856791
670.431396	1027.383667	6346.343750	1286.700317	4.875326
670.761597	1036.299927	6284.672363	1287.740601	4.790831
671.091797	1036.002808	6232.957520	1293.536133	4.955466
671.421875	1039.569336	6186.221191	1291.083984	4.886957
671.751892	1045.216431	6161.850098	1294.724976	4.876420
672.081909	1041.501221	6126.333496	1297.474121	5.034048
672.411865	1036.225708	6124.178223	1302.229492	5.228110
672.741821	1028.349731	6111.027344	1295.542358	5.256927
673.071716	1030.281616	6111.473145	1298.960083	5.287706
673.401550	1028.423950	6069.046875	1295.244995	5.293414
673.731262	1034.145386	6043.709473	1292.198608	5.151211
674.060974	1036.151489	6026.395996	1291.529907	5.117553
674.390625	1045.216431	6020.229004	1292.793091	4.976403
674.720276	1040.386597	6001.133301	1304.532837	5.324728
675.049927	1036.671509	5957.220703	1303.567017	5.424100
675.379395	1022.033875	5942.657715	1307.727905	5.806053
675.708923	1020.324890	5919.028809	1306.613403	5.844168
676.038330	1023.891418	5927.202637	1309.065308	5.815945
676.367737	1037.563110	5924.230469	1304.235718	5.457147
676.697083	1037.934692	5940.725098	1302.898071	5.404338
677.026428	1040.535278	5957.740234	1292.495850	5.124061
677.355652	1038.603394	5976.167969	1298.291504	5.259438
677.684875	1042.244263	6013.616699	1300.966309	5.204238
678.013977	1042.541504	6035.089844	1310.699951	5.371174
678.343079	1043.581665	6093.863281	1308.991089	5.255339
678.672180	1048.411499	6137.999512	1315.083862	5.239567
679.001221	1038.826416	6219.212402	1319.393433	5.415948
679.330139	1036.522949	6286.901855	1329.127075	5.573009
679.659058	1035.111206	6365.291504	1325.263428	5.443573
679.987976	1041.352661	6446.281250	1335.962891	5.450770
680.316772	1039.643677	6465.005371	1338.860718	5.515154
680.645630	1032.064819	6463.890625	1350.749146	5.866984
680.974304	1029.761353	6433.798340	1348.371460	5.895780
681.302979	1031.841797	6428.299316	1356.544800	6.016966
681.631653	1040.312378	6398.652832	1347.702759	5.736671
681.960266	1039.866577	6349.019043	1344.730591	5.742235
682.288757	1037.117310	6271.149902	1337.671875	5.742313
682.617249	1035.928589	6213.416016	1348.965820	6.046123
682.945679	1034.962524	6117.416504	1348.817261	6.175260
683.274109	1038.826294	6031.597656	1336.483032	5.961754
683.602478	1042.244263	5904.540527	1321.250977	5.738168
683.930725	1051.680786	5827.265625	1317.536011	5.566967
684.259033	1054.207153	5738.177246	1316.718506	5.604463
684.587280	1051.309204	5683.044434	1311.517212	5.617938
684.915344	1051.978027	5630.363281	1305.498779	5.537340
685.243469	1048.782837	5592.171387	1316.495605	5.892359
685.571533	1045.142090	5589.942871	1316.198364	5.964096
685.899536	1041.649780	5559.849609	1325.486206	6.282069
686.227539	1045.959351	5559.923828	1319.616333	6.062453
686.555420	1050.343262	5546.400879	1327.864014	6.172535
686.883301	1044.473511	5566.462891	1324.966187	6.202860
687.211121	1040.015259	5582.810059	1320.953735	6.184265
687.538940	1039.643799	5582.958496	1326.526489	6.314392
687.866638	1045.216431	5578.053223	1323.108521	6.130644
688.194336	1051.086304	5570.400391	1330.687378	6.186803
688.521973	1051.977905	5520.915527	1326.006226	6.131845
688.849609	1048.782837	5476.854004	1329.127075	6.331069
689.177063	1046.702393	5405.002930	1336.185791	6.642116
689.504578	1046.182251	5370.823730	1327.715210	6.509972
689.832031	1049.451660	5325.424805	1325.560547	6.457218
690.159485	1045.067749	5287.084473	1313.746338	6.333747
690.486816	1043.656006	5237.599121	1313.523438	6.434694
690.814087	1042.838623	5176.373535	1305.870239	6.363358
691.141296	1047.296753	5118.343262	1302.303833	6.263920
691.468506	1043.804565	5067.445313	1300.594849	6.382038
691.795715	1033.922363	5031.705566	1302.675293	6.722549
692.122803	1024.560181	4990.245605	1300.297729	6.953086
692.449829	1030.504517	4953.613770	1302.972534	6.945206
692.776855	1037.043091	4921.886719	1306.167480	6.927547
693.103821	1038.083374	4904.351563	1315.826782	7.183760
693.430664	1031.841797	4884.141113	1315.083862	7.352546
693.757568	1031.767578	4875.298828	1314.415161	7.353852
694.084351	1033.699341	4876.338867	1304.384155	7.044241
694.411133	1034.739746	4881.911621	1303.641113	6.989585
694.737854	1040.386719	4859.398438	1297.399780	6.729832
695.064575	1042.392944	4842.977051	1302.303833	6.838709
695.391174	1049.451660	4842.977051	1294.650513	6.463614
695.717773	1048.634399	4876.116211	1296.656738	6.480040
696.044250	1048.931519	4928.201660	1297.474121	6.406942
696.370789	1045.959351	4988.535645	1310.402832	6.707378
696.697205	1039.717896	5069.376953	1322.885620	7.027089
697.023621	1041.426880	5186.775391	1335.071289	7.083708
697.349915	1041.426880	5325.572754	1354.018555	7.296476
697.676208	1046.033691	5516.753906	1373.634399	7.327694
698.002380	1046.182373	5721.384277	1389.089355	7.334591
698.328674	1042.021362	5930.620605	1404.618774	7.417205
698.654724	1042.764404	6085.541504	1411.677368	7.315670
698.980896	1043.210205	6170.543457	1418.661743	7.322550
699.306946	1041.204102	6173.441406	1415.541138	7.293837
699.632935	1034.368164	6095.498047	1411.528809	7.452104
699.958862	1036.671509	5942.806152	1406.847656	7.545169
700.284729	1038.454712	5752.516113	1399.788940	7.665030
700.610596	1045.959473	5570.771973	1395.553711	7.726160
700.936340	1040.683960	5387.615723	1390.501099	8.047450
701.262146	1042.021362	5199.779297	1382.253540	8.183068
701.587830	1041.129761	5039.582520	1377.646851	8.416183
701.913513	1048.411377	4912.747559	1351.194946	7.835332
702.239075	1045.216309	4794.977051	1335.740112	7.747796
702.564697	1038.974976	4682.631836	1316.272827	7.610427
702.890137	1040.015259	4592.577148	1325.263306	8.029362
703.215698	1046.851074	4548.812988	1326.898071	7.996860
703.541016	1050.046021	4515.005371	1331.727661	8.129436
703.866455	1039.792236	4462.398926	1321.325317	8.225692
704.191711	1032.584839	4412.467285	1322.514160	8.578089
704.517029	1033.327881	4353.173340	1315.604004	8.502688
704.842163	1041.203979	4327.167480	1310.997192	8.210475
705.167419	1043.061646	4294.028320	1305.944702	8.086304
705.492493	1041.129761	4281.471191	1308.916626	8.264156
705.817566	1032.659302	4255.539551	1320.656616	8.936023
706.142578	1028.201050	4273.149414	1324.743164	9.138577
706.467590	1033.996582	4268.765625	1322.662720	8.923856
706.792480	1030.801636	4303.910645	1317.610229	8.762574
707.117371	1040.238159	4317.879883	1317.758789	8.467083
707.442200	1030.430176	4346.114746	1317.312866	8.652291
707.766907	1036.448730	4333.558105	1319.393433	8.581599
708.091675	1033.922485	4327.613770	1320.359375	8.696531
708.416321	1035.557007	4330.214355	1324.891968	8.781944
708.741028	1037.265991	4341.730957	1330.390259	8.870552
709.065552	1033.476440	4363.501465	1329.127075	8.878331
709.390137	1038.083374	4363.872559	1331.356079	8.818139
709.714600	1031.841919	4371.006348	1330.984741	8.958612
710.039063	1030.875854	4384.083496	1334.774048	9.062910
710.363403	1028.275391	4416.553711	1338.117676	9.144535
710.687744	1030.727295	4477.110352	1351.417847	9.305134
711.012085	1031.767578	4537.666992	1362.117432	9.422685
711.336304	1028.721069	4584.997559	1361.448730	9.356069
711.660461	1031.619019	4587.227051	1353.349609	9.048539
711.984619	1038.008911	4565.902344	1345.770874	8.723675
712.308716	1045.439331	4517.531250	1358.922363	9.028650
712.632751	1050.268921	4484.392578	1359.591187	9.007314
712.956726	1044.473511	4409.198242	1361.225952	9.413918
713.280701	1046.405273	4374.870117	1353.349976	9.221810
713.604553	1040.015137	4317.434082	1355.727417	9.632955
713.928467	1044.993408	4319.737305	1365.609741	9.790577
714.252258	1036.745850	4304.653809	1367.170288	10.111192
714.575989	1037.043091	4307.849121	1369.696411	10.170377
714.899719	1039.420776	4284.145996	1362.414673	9.954431
715.223267	1045.067749	4293.210938	1357.139160	9.607687
715.546936	1051.011963	4290.610840	1357.287720	9.454126
715.870422	1049.526001	4291.576660	1361.003052	9.607409
716.193970	1045.885132	4265.199219	1359.888550	9.753737
716.517395	1038.083374	4252.790527	1358.476685	9.966486
716.840820	1037.191772	4227.527832	1358.996826	10.086870
717.164124	1039.866577	4182.797363	1348.743042	9.827658
717.487488	1042.467163	4122.463379	1336.260132	9.538745
717.810730	1033.996704	4070.971680	1323.479980	9.531960
718.133972	1035.111328	4009.820557	1333.065063	10.016231
718.457092	1038.231934	3930.762695	1343.838989	10.565387
718.780212	1047.668457	3864.930420	1339.380859	10.354465
719.103210	1045.290649	3819.903076	1341.089844	10.660920
719.426208	1044.919189	3776.584717	1325.337646	10.265475
719.749207	1034.888306	3745.674561	1327.418091	10.791327
720.072083	1034.591187	3703.916016	1313.895020	10.463464
720.394958	1029.092651	3690.764648	1317.535767	10.836915
720.717773	1032.807861	3649.155273	1317.164429	10.868456
721.040527	1038.454834	3633.105713	1319.393433	10.827607
721.363281	1040.015137	3599.743896	1313.746460	10.693763
721.685913	1040.609619	3595.360107	1305.498901	10.368499
722.008545	1038.974854	3579.013672	1300.074707	10.279365
722.331055	1039.049194	3563.558594	1293.758911	10.089475
722.653503	1038.529175	3537.775391	1294.947876	10.259842
722.976013	1031.990356	3536.140625	1299.851685	10.696695
723.298401	1037.340210	3539.558594	1309.734009	10.886093
723.620789	1042.690063	3534.803467	1312.037476	10.807992
723.943115	1047.668335	3513.107178	1310.551392	10.662728
724.265381	1044.101929	3499.361084	1303.492676	10.564699
724.587585	1039.643677	3487.769531	1301.040649	10.677431
724.909790	1036.745972	3494.679688	1309.734009	11.106404
725.231873	1036.820190	3517.416260	1323.925781	11.574056
725.553894	1041.798462	3534.580078	1335.145508	11.767859
725.875916	1067.730103	3545.948486	1367.838745	12.109856
726.197937	1062.380249	3546.766357	1372.371216	12.477568
726.519775	1054.281250	3561.775391	1377.349609	12.884112
726.841675	1023.520020	3571.286133	1349.114380	12.779602
727.163513	1025.228882	3606.282471	1343.095947	12.315399
727.485291	1033.253540	3637.861084	1339.901001	11.773270
727.806946	1039.717896	3672.337891	1342.055786	11.484296
728.128662	1037.191772	3680.882568	1348.743042	11.784709
728.450256	1028.721191	3692.399414	1360.037109	12.438286
728.771790	1029.612915	3689.055664	1357.659302	12.335155
729.093323	1032.733521	3677.835938	1352.755493	12.098660
729.414795	1039.049316	3668.176758	1342.353027	11.536288
729.736145	1033.773804	3655.842529	1345.325073	11.881887
730.057495	1035.334106	3650.715576	1355.504517	12.241825
730.378845	1031.990601	3643.210938	1357.139160	12.451978
730.700134	1037.637573	3651.607178	1363.603516	12.470150
731.021301	1036.820190	3688.238281	1364.495239	12.358483
731.342468	1040.460938	3714.764404	1365.163940	12.141591
731.663574	1039.792358	3724.423828	1359.962769	11.926047
731.984680	1043.507446	3713.501221	1354.538452	11.649129
732.305664	1044.101929	3712.535400	1359.591187	11.823013
732.626648	1045.216431	3713.204102	1366.947144	12.058928
732.947571	1045.290649	3712.684326	1372.371216	12.262178
733.268433	1039.569458	3700.275635	1372.742676	12.521985
733.589233	1037.934692	3691.582031	1365.015259	12.325698
733.909973	1033.699341	3663.050049	1364.940918	12.597848
734.230713	1040.906860	3626.492920	1366.427124	12.589807
734.551331	1045.662231	3580.499756	1366.129883	12.642533
734.871948	1046.479492	3526.852783	1350.006226	12.237140
735.192505	1044.993408	3480.042236	1339.455078	12.092639
735.513062	1036.894409	3439.101563	1332.247803	12.295085
735.833435	1041.501343	3413.541260	1332.247925	12.257237
736.153931	1037.563354	3376.538330	1327.343750	12.389204
736.474304	1046.999634	3361.752197	1326.229248	12.063045
736.794617	1046.851074	3355.288086	1333.659668	12.424363
737.114807	1049.897461	3361.009521	1335.962891	12.377826
737.434998	1043.953247	3351.201172	1334.848511	12.607888
737.755188	1043.061523	3344.885498	1333.288086	12.608547
738.075256	1041.724121	3351.126953	1338.712036	12.859944
738.395325	1041.352661	3370.000000	1343.913330	12.992979
738.715271	1041.426880	3396.154541	1350.006226	13.104673
739.035278	1046.330933	3416.587891	1348.222778	12.736672
739.355164	1049.080078	3430.184814	1351.194946	12.688012
739.675049	1040.089478	3409.529053	1341.684082	12.728521
739.994873	1039.643677	3384.191650	1338.637817	12.752742
740.314636	1040.535278	3347.114502	1332.247681	12.646972
740.634277	1047.073853	3319.548584	1338.637817	12.830241
740.953979	1040.015137	3290.942139	1344.953613	13.547239
741.273499	1036.002808	3258.174561	1356.544800	14.424716
741.593140	1040.535278	3216.193115	1346.513794	14.063725
741.912598	1036.820190	3186.026367	1344.879272	14.333623
742.232117	1033.996582	3144.416748	1325.560425	13.815440
742.551453	1029.612793	3117.518799	1337.597534	14.750891
742.870850	1035.185425	3078.807373	1337.523315	14.794218
743.190063	1041.798462	3054.658936	1340.644165	14.846817
743.509338	1037.711792	3048.566406	1328.607056	14.466250
743.828552	1042.021484	3035.489014	1319.913574	13.940136
744.147705	1041.724243	3030.287842	1322.142578	14.101552
744.466797	1051.086304	3007.328369	1328.681274	14.190216
744.785828	1047.296875	3000.418213	1331.430542	14.547671
745.104858	1042.169922	2992.764893	1328.904175	14.699836
745.423706	1041.947144	2983.699951	1321.102417	14.376458
745.742615	1043.581787	2977.012451	1311.963135	13.881095
746.061401	1045.587891	2963.192383	1316.644165	14.135150
746.380249	1034.962524	2965.867188	1317.535767	14.634241
746.698975	1029.612793	2963.638428	1328.755615	15.467366
747.017639	1031.990479	2949.074951	1321.771118	15.115695
747.336304	1036.597290	2939.118164	1324.223145	15.118144
747.654907	1041.203979	2930.796143	1317.312866	14.612089
747.973389	1039.643677	2941.942139	1318.650391	14.666821
748.291931	1041.575562	2943.130859	1320.582275	14.672553
748.610352	1042.541504	2942.685303	1317.089966	14.448826
748.928711	1043.284546	2941.644531	1307.207642	13.902690
749.247070	1041.352661	2939.044189	1307.282104	14.013312
749.565308	1047.965576	2937.557861	1306.613403	13.688023
749.883545	1055.098633	2931.390869	1313.374878	13.765246
750.201782	1052.721069	2917.273438	1308.025024	13.692507
750.519836	1050.046021	2900.406982	1313.895020	14.259326
750.837952	1038.008911	2887.032471	1313.969360	14.924659
751.155884	1040.981079	2869.422607	1309.139771	14.665970
751.473877	1031.172974	2868.976563	1313.300659	15.351352
751.791809	1033.922363	2871.428711	1317.610229	15.438742
752.109619	1030.207153	2889.632813	1326.229370	15.920089
752.427490	1039.049316	2879.750732	1318.724731	15.193959
752.745300	1044.250488	2887.032227	1320.359253	14.983259
753.062988	1054.281372	2877.001221	1321.325195	14.650843
753.380615	1049.897583	2888.741211	1329.944336	15.229504
753.698303	1046.330933	2881.533936	1329.870117	15.450018
754.015808	1044.027588	2872.246094	1325.114624	15.374915
754.333374	1037.637573	2866.227539	1317.164185	15.286457
754.650757	1037.711792	2860.580811	1312.334595	15.065416
754.968262	1037.860474	2868.307861	1316.421265	15.218181
755.285583	1042.541382	2858.574219	1325.783569	15.596755
755.602905	1045.067749	2853.298828	1335.517212	16.062630
755.920105	1045.364990	2852.927002	1335.442871	16.048018
756.237305	1044.844849	2858.053955	1340.866821	16.325859
756.554443	1044.473267	2863.180908	1341.015503	16.305107
756.871582	1039.717896	2871.057373	1345.993774	16.724146
757.188599	1043.061523	2864.666992	1338.117676	16.197588
757.505615	1042.541504	2872.246094	1343.987549	16.475121
757.822510	1039.346436	2880.493408	1349.040161	16.820696
758.139465	1038.529175	2903.007080	1354.167114	16.929026
758.456238	1037.563232	2926.858398	1351.120728	16.596533
758.773010	1039.420776	2952.938721	1347.034058	16.075798
759.089783	1038.974976	2989.718750	1353.349731	16.115635
759.406433	1043.953247	2999.303467	1362.191772	16.275270
759.723145	1047.965698	2997.223389	1366.798462	16.356625
760.039673	1049.005737	2986.821045	1362.191772	16.161810
760.356201	1045.959473	2993.507813	1363.529175	16.306128
760.672668	1042.838745	2997.743164	1372.519897	16.864311
760.989136	1043.284668	3001.755615	1381.807617	17.285063
761.305481	1042.764404	2988.158203	1386.265747	17.657162
761.621826	1042.764404	2982.510986	1380.990234	17.436600
761.938049	1042.690063	2988.158203	1382.699219	17.476984
762.254333	1041.055298	3030.213623	1377.052246	16.891413
762.570496	1039.049194	3105.333740	1386.117310	16.796722
762.886597	1032.733398	3237.444092	1402.389526	16.766649
763.202637	1033.105103	3412.649658	1437.609009	16.999216
763.518677	1037.414673	3635.037842	1482.785156	17.145308
763.834656	1043.061646	3847.469482	1526.177856	17.227032
764.150574	1044.399048	3981.363037	1549.806152	17.208488
764.466370	1037.340210	4001.499023	1555.973267	17.496805
764.782288	1034.962524	3898.441162	1534.871460	17.458099
765.097961	1033.773804	3755.333984	1512.952148	17.606752
765.413696	1034.739624	3593.725586	1488.729126	17.740993
765.729309	1039.643677	3438.209717	1466.958496	17.815430
766.044861	1035.928589	3303.127686	1449.571777	18.244678
766.360474	1040.089478	3198.955078	1427.875366	17.962482
766.675903	1034.516846	3122.274414	1414.426758	18.197031
766.991394	1033.550903	3062.015381	1399.714722	18.051281
767.306763	1037.340454	2999.897705	1385.894165	17.760181
767.622131	1040.981323	2953.607422	1371.925415	17.303125
767.937378	1045.513550	2905.458984	1360.705688	16.946312
768.252625	1048.931519	2870.313721	1363.083374	17.247992
768.567810	1048.337158	2817.707764	1360.185547	17.624821
768.882996	1046.628174	2791.627686	1362.786133	18.117939
769.197998	1042.764282	2762.129150	1349.411621	17.834919
769.513062	1042.987305	2750.612305	1348.445679	17.887907
769.828064	1047.296875	2713.758545	1341.907104	17.678789
770.142944	1052.795288	2685.523193	1344.656372	17.875671
770.457825	1057.327759	2668.359131	1333.436646	17.138641
770.772705	1056.733276	2654.538818	1329.795776	17.089846
771.087402	1050.789063	2640.792725	1319.467651	16.897985
771.402100	1043.879028	2618.873535	1321.251099	17.610987
771.716736	1042.541504	2595.691406	1321.102417	17.935225
772.031372	1044.027588	2571.988525	1317.090088	17.871038
772.345947	1042.838745	2561.809326	1313.374878	17.810492
772.660461	1038.974976	2550.069336	1309.511108	17.903324
772.974854	1036.002930	2543.604980	1316.792847	18.624935
773.289246	1041.501221	2530.973389	1324.668945	19.011280
773.603638	1041.352539	2529.487549	1319.690552	18.703815
773.917908	1042.838745	2525.995361	1317.684448	18.531132
774.232178	1046.628052	2518.565186	1308.545288	17.794050
774.546265	1047.296875	2510.391602	1307.579224	17.789850
774.860474	1046.479614	2496.571533	1305.944702	17.893009
775.174561	1038.306274	2481.710938	1302.155273	18.279627
775.488586	1037.043091	2461.277344	1302.526855	18.640457
775.802551	1037.711792	2448.274658	1300.892090	18.657822
776.116516	1035.482788	2433.488525	1307.653564	19.468502
776.430359	1036.597290	2426.578369	1312.186035	19.826797
776.744202	1033.922485	2420.782715	1302.155273	19.341011
777.057922	1038.974976	2428.658936	1295.839478	18.483664
777.371704	1042.392944	2423.754639	1286.031372	17.637554
777.685303	1042.318604	2426.875488	1290.489746	17.924229
777.998962	1041.501343	2407.185303	1300.892090	18.993467
778.312500	1035.482788	2398.566162	1299.628906	19.378574
778.626038	1039.197876	2384.151367	1293.090210	18.877407
778.939453	1035.557007	2387.792236	1288.632202	18.715322
779.252869	1040.163696	2399.606445	1293.016113	18.599710
779.566223	1042.764282	2401.984131	1306.762085	19.422745
779.879578	1047.371094	2394.628174	1306.390503	19.225685
780.192749	1042.318481	2381.996582	1303.566895	19.500835
780.505920	1036.448608	2366.467285	1298.068481	19.670391
780.819031	1032.510620	2363.792480	1294.056274	19.646152
781.132141	1044.027710	2353.241455	1302.155151	19.716219
781.445190	1044.770508	2355.990967	1293.164551	18.943727
781.758118	1044.993530	2344.176514	1293.313110	19.113518
782.071045	1033.104980	2345.216797	1296.656860	20.086084
782.383911	1037.637573	2327.086914	1305.796021	20.796354
782.696838	1044.027466	2323.446045	1300.743286	20.065037
783.009583	1048.931519	2307.545410	1291.455444	19.269129
783.322266	1042.913086	2300.412354	1284.322388	19.197571
783.634888	1038.009155	2284.437256	1286.328735	19.922495
783.947510	1039.718018	2273.886475	1287.071777	20.042139
784.260132	1040.683960	2267.718994	1290.861206	20.388762
784.572571	1037.488892	2261.700439	1291.084106	20.714983
784.885010	1032.213379	2260.214355	1294.204712	21.334782
785.197449	1030.430054	2250.332275	1293.461792	21.561707
785.509766	1034.293945	2245.427979	1291.307007	21.220860
785.822083	1040.163696	2245.502441	1277.486694	19.689320
786.134277	1046.776733	2250.406250	1275.183350	18.976488
786.446533	1043.061646	2257.093506	1272.805542	18.924042
786.758606	1036.745850	2247.508545	1274.514648	19.637936
787.070740	1032.510620	2254.641846	1276.000610	19.923391
787.382690	1043.135864	2255.384766	1280.904541	19.613850
787.694641	1040.163696	2275.298096	1288.780640	20.128736
788.006653	1036.745972	2305.390625	1291.901367	20.112440
788.318481	1024.634521	2350.343750	1300.520630	20.810453
788.630310	1031.173218	2378.653076	1310.922974	20.760960
788.942017	1033.699341	2397.228760	1327.418091	21.541065
789.253784	1044.993408	2414.689697	1328.458374	20.695461
789.565430	1045.736450	2428.138672	1322.439819	20.016127
789.877014	1047.371216	2404.213135	1303.418335	18.870813
790.188538	1042.170044	2355.396240	1303.864136	19.927572
790.500061	1040.609619	2319.210938	1301.635010	20.414917
790.811462	1036.820190	2297.811768	1293.313110	20.340574
791.122925	1041.872681	2275.818115	1284.099609	19.630280
791.434204	1045.142090	2238.518066	1273.994507	19.176891
791.745483	1047.296753	2220.759521	1272.434082	19.185724
792.056702	1039.346558	2210.357422	1266.935791	19.435280
792.367920	1034.665405	2191.930176	1267.530151	20.121994
792.678955	1031.173218	2166.667236	1268.644653	20.913490
792.990112	1037.191650	2158.716797	1269.090454	20.677094
793.301086	1044.027588	2164.364014	1274.143066	20.539856
793.612122	1045.810913	2159.088623	1277.412354	20.803564
793.922974	1042.392944	2154.407471	1279.864380	21.355066
794.233826	1041.649902	2154.481689	1275.406128	21.005531
794.544556	1054.429932	2154.259033	1271.171021	19.706797
794.855286	1052.275024	2144.079346	1258.242310	18.864853
795.166016	1050.714844	2141.404541	1261.288696	19.306486
795.476624	1038.900757	2145.788330	1266.638550	20.574610
795.787292	1040.609741	2166.518799	1276.669312	20.966131
796.097778	1040.981079	2190.592773	1282.019165	20.966913
796.408264	1045.885132	2217.118896	1285.957153	20.497362
796.718689	1046.479492	2231.756592	1296.953979	21.132147
797.029053	1048.485596	2240.970215	1289.523682	20.213099
797.339355	1040.535156	2235.249023	1293.536011	21.176691
797.649658	1041.947021	2227.447021	1291.901489	21.084309
797.959839	1041.278320	2205.230713	1294.353394	21.742735
798.270020	1057.996338	2181.676514	1290.935547	20.730028
798.580078	1061.711548	2159.237061	1282.019165	20.073120
798.890137	1061.488647	2148.091797	1281.499023	20.247538
799.200195	1051.011963	2132.488037	1274.811768	20.693920
799.510071	1048.262695	2125.057861	1275.777710	21.128904
799.820007	1043.210205	2113.838135	1267.307251	20.931366
800.129883	1038.231934	2126.172607	1265.449585	20.885115
800.439575	1036.820190	2128.921631	1261.140015	20.540201
800.749329	1046.776733	2119.039307	1266.044067	20.449034
801.058960	1045.364868	2086.494873	1266.341309	21.224672
801.368591	1044.399048	2068.364990	1266.341309	21.674770
801.678162	1031.841919	2071.262451	1264.037964	22.338989
801.987671	1035.036987	2084.785889	1266.861328	22.083790
802.297119	1032.882202	2085.157227	1268.495972	22.390892
802.606506	1034.442505	2063.014893	1263.814941	22.300077
802.915894	1034.219604	2054.172852	1258.465210	21.985870
803.225159	1037.340210	2044.439087	1252.446655	21.359020
803.534424	1038.008911	2053.727295	1257.796509	21.638636
803.843628	1041.501099	2053.058594	1256.236206	21.228167
804.152771	1045.885132	2053.058594	1254.824341	20.745106
804.461792	1050.937622	2053.653076	1247.171143	19.570210
804.770874	1054.652710	2053.355713	1247.319824	19.291733
805.079773	1051.531982	2055.882080	1250.886353	19.849091
805.388733	1049.823120	2053.727051	1258.762329	20.812670
805.697571	1039.717896	2048.971924	1265.226685	22.344107
806.006470	1038.454834	2052.241211	1262.403198	22.090292
806.315125	1031.916138	2058.259766	1265.152344	22.724962
806.623901	1036.374268	2068.067627	1259.951294	21.670879
806.932495	1041.203979	2067.473389	1263.592163	21.669571
807.241150	1041.129639	2054.544678	1262.997681	21.893106
807.549622	1040.609497	2049.343506	1262.031738	21.950508
807.858154	1034.591064	2042.730469	1256.756226	22.037148
808.166565	1042.244263	2039.683960	1242.638672	20.090879
808.474915	1043.507446	2027.721313	1244.496216	20.421249
808.783264	1041.798462	2002.458374	1251.257813	21.803694
809.091492	1042.764404	1987.375000	1247.691284	21.694324
809.399719	1042.690063	1973.777466	1241.821411	21.386967
809.707825	1043.581665	1974.966431	1232.459229	20.279221
810.015930	1039.569336	1965.455688	1233.425171	20.937325
810.323975	1041.278320	1960.625977	1232.384766	20.787180
810.632080	1039.049316	1951.709595	1238.031860	21.802477
810.939880	1042.170044	1948.588867	1237.363159	21.534538
811.247864	1042.467163	1947.994507	1235.282715	21.293179
811.555664	1039.792236	1941.084351	1226.663574	20.733715
811.863464	1038.677734	1936.254517	1232.459229	21.589405
812.171143	1025.972046	1919.090820	1239.592407	23.918472
812.478882	1024.040039	1908.836914	1245.313599	25.008402
812.786438	1025.229004	1904.601685	1240.929688	24.528927
813.094055	1037.934692	1903.709961	1241.672729	23.532438
813.401489	1045.365112	1909.134155	1241.301270	22.683859
813.708984	1039.123535	1910.025757	1242.936035	23.402454
814.016357	1037.043091	1915.078247	1243.084595	23.466202
814.323730	1037.043091	1908.465332	1238.106323	23.072998
814.630981	1040.906860	1901.332397	1237.437500	22.841099
814.938232	1040.832520	1903.635742	1230.898926	22.028940
815.245361	1040.238037	1913.369507	1232.830688	22.057692
815.552490	1042.838745	1902.075562	1235.134155	22.379791
815.859619	1042.838745	1893.827759	1237.511841	22.876101
816.166565	1050.789185	1887.437866	1236.843140	22.238003
816.473572	1051.086304	1899.177612	1234.093872	21.578758
816.780457	1050.789063	1909.431274	1228.669800	20.716515
817.087341	1039.717896	1913.517944	1231.418945	21.938778
817.394043	1041.501099	1930.979126	1242.638550	22.612976
817.700806	1044.473267	1932.167847	1253.932617	23.595881
818.007507	1052.423706	1936.031616	1253.784058	22.788427
818.314209	1043.358887	1933.951172	1251.555054	23.377270
818.620667	1035.036987	1940.489868	1253.709839	24.150661
818.927246	1030.430176	1954.310059	1257.647949	24.593864
819.233704	1032.956421	1975.560669	1255.790405	23.640247
819.540161	1037.414551	2020.365234	1256.681763	22.307041
819.846497	1043.284546	2085.008789	1270.279297	21.790291
820.152832	1043.061646	2165.924316	1293.684570	22.319998
820.458984	1044.547607	2253.601807	1315.455322	22.406582
820.765259	1036.225708	2345.142578	1339.380737	23.160755
821.071350	1040.683960	2449.314697	1363.232056	22.897987
821.377502	1040.386719	2608.471436	1406.476196	23.346281
821.683472	1039.123535	2936.295166	1491.924316	23.867149
821.989441	1032.064819	3585.998047	1646.028198	24.039917
822.295349	1027.755249	4592.650879	1899.623413	24.457047
822.601196	1025.377563	5876.304688	2210.506104	24.430969
822.907043	1034.368164	7065.445313	2495.531250	24.227232
823.212769	1037.414551	7838.862793	2673.411865	24.053661
823.518494	1046.628052	7880.323730	2680.767822	23.912971
823.824097	1040.981079	7282.187012	2554.824951	24.255630
824.129700	1038.826294	6311.273438	2327.978760	24.450743
824.435242	1032.733521	5327.876465	2096.154053	24.758675
824.740723	1031.618896	4521.171875	1893.233398	24.691257
825.046082	1039.866577	3935.220703	1738.460571	24.128103
825.351501	1039.272095	3509.466064	1631.167358	23.961491
825.656799	1038.677734	3216.862061	1566.672729	24.240143
825.962036	1037.637573	3020.182617	1525.360352	24.600842
826.267212	1034.888306	2937.112061	1501.732300	24.542013
826.572449	1041.203979	2942.164795	1500.246216	24.147905
826.877502	1038.083374	3060.305908	1535.837280	24.614201
827.182495	1046.553833	3303.721924	1601.595215	24.590168
827.487488	1042.021362	3642.468018	1676.640991	24.404253
827.792419	1041.129761	3914.862061	1744.925171	24.490639
828.097290	1035.185547	4027.430420	1762.609375	24.310305
828.402100	1039.272217	3897.697998	1740.838501	24.543798
828.706848	1039.940918	3617.056641	1672.257202	24.535812
829.011597	1043.358887	3244.725342	1590.226929	24.842209
829.316223	1042.912964	2889.707031	1505.447388	25.045263
829.620789	1044.399048	2609.065918	1427.801147	24.503752
829.925354	1043.804565	2398.120361	1373.857300	24.370441
830.229797	1041.278320	2258.282471	1331.207520	23.823189
830.534302	1034.219604	2140.289795	1306.836304	24.647324
830.838562	1032.733521	2062.717773	1289.300903	24.909836
831.142944	1028.126831	2006.024902	1277.338013	25.484371
831.447144	1031.098877	1972.885864	1265.672607	24.907303
831.751404	1035.631226	1947.697266	1258.316528	24.415480
832.055542	1043.358765	1929.121460	1253.561157	23.731232
832.359619	1044.399048	1937.369141	1251.406372	23.181889
832.663635	1042.244263	1959.957153	1262.254639	23.973770
832.967651	1038.380493	2005.727661	1277.561035	24.725409
833.271545	1033.327881	2102.246826	1311.368774	26.011410
833.575439	1034.591064	2262.369385	1345.993774	25.363106
833.879211	1040.758179	2479.036133	1398.525757	24.874718
834.183044	1041.352661	2693.548096	1454.475708	25.004490
834.486694	1040.238159	2851.886963	1502.846802	25.535227
834.790344	1038.008911	2914.969971	1521.794067	25.774918
835.093933	1045.439331	2860.134766	1507.082031	25.439129
835.397522	1046.405151	2725.572510	1458.042358	24.514364
835.700928	1048.188599	2548.211914	1410.934204	24.182665
836.004395	1042.095703	2377.984375	1362.043213	23.950163
836.307739	1044.696167	2221.874268	1336.111572	24.755423
836.611023	1042.169922	2093.256348	1297.622681	24.303688
836.914307	1047.742554	1994.656616	1275.554932	24.058401
837.217529	1046.628052	1925.629395	1252.744019	23.448879
837.520691	1047.445435	1873.914673	1239.518066	23.240143
837.823730	1051.829346	1821.457031	1226.366333	22.678106
838.126831	1051.977905	1774.720581	1214.032104	22.422115
838.429749	1055.321533	1743.513306	1212.100220	22.781250
838.732727	1051.977905	1718.473267	1200.880493	22.341129
839.035522	1052.646606	1698.337280	1202.663818	23.233604
839.338379	1041.426880	1685.259888	1199.840454	24.604761
839.641113	1039.420776	1693.804810	1202.515259	24.923359
839.943848	1035.557129	1727.389648	1210.465698	25.281923
840.246460	1042.318604	1774.869141	1221.759644	24.495380
840.549072	1035.185425	1826.806641	1242.935913	26.243673
840.851563	1031.247437	1861.877563	1248.731567	26.183029
841.154053	1025.749023	1872.280151	1251.183472	26.630379
841.456482	1024.560303	1844.490845	1242.341431	26.560925
841.758850	1033.253662	1790.026978	1224.137329	25.223362
842.061157	1033.848022	1726.572388	1211.803101	25.689161
842.363403	1040.386597	1679.092896	1198.354126	24.732420
842.665588	1034.293823	1646.473999	1185.574219	24.711744
842.967712	1038.380493	1613.780884	1171.382446	23.114679
843.269775	1043.581665	1581.013306	1166.032593	22.784466
843.571777	1046.033813	1554.338745	1167.741577	23.943850
843.873840	1037.786133	1538.214844	1160.162720	24.454350
844.175659	1036.448608	1528.927124	1156.521851	24.381418
844.477600	1037.265991	1521.125366	1146.565308	22.589067
844.779297	1043.804688	1506.041992	1145.896606	22.086473
845.081116	1036.151489	1493.633301	1141.512695	23.030687
845.382751	1031.841919	1484.716919	1143.221558	24.593903
845.684387	1032.510620	1477.881226	1142.404297	24.674658
845.985962	1039.495117	1473.200073	1129.178345	20.678396
846.287537	1047.891235	1457.076294	1130.515991	20.192514
846.588989	1051.383667	1453.807007	1129.104126	19.313108
846.890381	1050.343384	1444.073242	1130.515991	20.362339
847.191711	1047.817017	1440.952637	1127.246582	20.204113
847.493042	1050.566284	1443.478882	1125.017456	18.948532
847.794250	1048.188477	1442.364380	1130.144409	20.791716
848.095459	1042.392822	1437.832031	1128.807007	21.852711
848.396606	1038.083374	1424.903320	1126.429199	22.839005
848.697693	1038.157593	1423.342773	1124.645996	22.453720
848.998657	1044.919189	1425.126343	1125.834839	21.281990
849.299622	1051.160645	1420.147827	1124.422974	19.854979
849.600464	1055.247192	1404.767212	1129.327026	21.194733
849.901367	1048.411499	1396.222290	1130.515991	23.606079
850.202087	1038.231934	1391.392700	1131.704834	26.467522
850.502808	1035.928589	1387.900513	1131.184692	27.063551
850.803467	1042.987427	1391.467163	1129.921509	24.946669
851.104065	1048.262817	1396.742554	1133.710815	24.520220
851.404663	1054.652954	1406.253296	1131.407471	21.830046
851.705139	1060.151245	1404.990112	1124.645874	18.702831
852.005615	1060.522827	1405.138672	1121.822388	17.787796
852.306030	1047.668335	1402.240845	1111.420044	17.979879
852.606384	1035.482788	1400.829102	1115.506714	21.903582
852.906616	1033.625122	1393.176147	1116.621338	23.083292
853.206909	1037.860352	1390.946899	1115.432495	21.969725
853.506958	1035.482788	1385.002808	1104.138550	19.642870
853.807129	1032.436401	1374.674683	1098.714355	19.366026
854.107178	1036.300171	1371.925415	1104.212646	20.234615
854.407166	1040.386719	1371.108032	1116.472656	23.006058
854.707092	1037.488892	1376.829468	1120.336426	24.414272
855.007019	1038.380493	1362.191895	1120.559448	25.378647
855.306763	1042.838745	1357.956543	1119.593384	24.357443
855.606567	1049.600220	1350.006226	1118.553101	22.953230
855.906250	1045.587769	1356.098999	1119.518921	23.809494
856.205933	1041.203979	1354.167114	1115.432373	23.717936
856.505493	1037.860474	1355.430176	1115.581055	24.473551
856.805054	1042.318604	1351.937866	1112.683228	22.726177
857.104492	1043.433105	1350.823364	1107.704956	20.908876
857.403931	1045.662231	1352.532349	1111.717407	21.525450
857.703308	1039.569336	1353.424072	1115.209595	24.100405
858.002563	1041.798340	1347.182739	1116.398315	24.428221
858.301819	1036.374268	1345.399414	1112.088745	24.501074
858.601013	1040.238159	1343.690430	1108.373657	22.453447
858.900208	1037.711914	1343.021606	1111.940186	24.312452
859.199219	1033.848022	1339.306519	1107.779175	24.203339
859.498291	1036.448608	1345.547852	1108.596558	23.341354
859.797302	1029.687012	1356.098999	1103.321045	22.558619
860.096191	1037.414673	1351.046387	1106.144653	21.914232
860.395020	1034.888306	1345.622437	1106.962036	23.194662
860.693787	1041.055542	1342.353027	1109.339722	22.663376
860.992554	1040.535278	1351.789551	1106.590454	21.222256
861.291260	1035.036987	1343.096069	1102.875244	22.021183
861.589844	1038.157593	1336.260254	1105.104370	22.457624
861.888428	1038.380493	1324.520264	1107.407837	24.123646
862.186890	1042.987305	1332.024780	1109.265381	22.930616
862.485413	1039.940918	1324.148804	1107.333496	23.712423
862.783813	1046.108032	1328.755615	1105.327271	20.951616
863.082153	1044.993530	1324.074585	1106.813354	22.151207
863.380371	1044.027588	1329.052734	1107.259155	22.184557
863.678589	1035.705566	1330.984741	1104.212769	23.200825
863.976746	1043.433228	1334.402710	1109.933960	22.854881
864.274902	1045.587891	1330.316040	1113.352051	23.799601
864.572937	1043.358887	1327.492432	1117.512817	26.098267
864.870911	1035.854126	1320.507935	1108.447998	25.502512
865.168884	1038.009033	1322.960083	1104.658569	23.389820
865.466736	1046.628174	1327.046753	1109.711060	22.495972
865.764587	1049.005859	1337.820435	1107.259155	20.169790
866.062317	1049.897339	1334.402466	1101.760742	18.229340
866.360107	1048.114136	1328.383911	1098.268555	17.895050
866.657715	1046.702393	1323.851440	1104.286987	20.777483
866.955322	1043.581665	1328.532593	1109.636841	23.181246
867.252808	1045.067749	1328.904175	1106.962036	21.806322
867.550293	1041.278320	1321.845337	1108.670898	24.020136
867.847717	1037.934692	1320.433716	1105.178711	23.803274
868.145081	1031.767578	1319.393433	1099.234497	23.456486
868.442383	1035.482666	1322.959961	1093.067383	20.031048
868.739624	1034.739624	1322.365356	1100.051758	22.707333
869.036804	1038.380493	1321.696655	1110.156860	25.334372
869.333984	1042.467163	1318.055908	1108.373657	23.914799
869.631042	1043.804688	1315.158081	1106.664673	23.165358
869.928101	1039.569458	1316.347046	1097.748413	21.020111
870.224976	1034.442505	1311.814575	1104.658569	25.314756
870.521851	1038.008911	1314.489380	1104.286987	23.972065
870.818726	1046.033691	1320.953735	1111.345703	23.756729
871.115479	1041.872681	1324.966187	1112.460327	24.934393
871.412231	1040.609741	1317.387207	1113.054688	26.174438
871.708862	1030.578735	1301.412109	1110.677124	29.574785
872.005493	1031.173096	1300.074707	1107.184692	28.267439
872.302063	1031.693237	1311.294434	1106.441772	26.733982
872.598572	1031.841919	1314.935181	1102.429321	24.934328
872.895020	1032.213379	1325.114624	1096.782349	22.044621
873.191406	1033.030762	1324.074341	1091.284058	20.015318
873.487671	1039.049194	1331.578979	1100.571899	21.031261
873.783997	1038.603394	1327.789673	1105.773071	23.227131
874.080200	1036.968750	1324.817505	1100.869141	22.199293
874.376343	1036.671509	1321.028076	1095.816650	20.799641
874.672424	1045.290649	1323.925903	1101.537964	20.186718
874.968445	1045.885132	1328.161011	1110.156982	22.769161
875.264465	1044.547729	1332.990845	1108.819458	22.282290
875.560364	1041.798462	1328.235474	1101.092041	20.700390
875.856201	1042.467163	1323.777222	1100.869263	20.760757
876.152039	1047.371094	1317.981567	1111.197266	23.585995
876.447754	1043.953247	1317.833130	1116.695557	26.559931
876.743469	1041.872681	1317.981689	1120.187744	28.363821
877.039063	1039.643677	1318.353149	1118.850342	28.419079
877.334595	1044.547607	1314.043579	1117.364258	27.019569
877.630127	1044.770508	1315.901123	1117.215698	26.719664
877.925537	1041.352661	1322.068237	1122.119751	28.771858
878.221008	1040.609619	1322.588379	1121.748169	28.774702
878.516296	1039.940918	1330.018677	1117.735718	26.818602
878.811646	1037.265991	1339.380737	1103.989746	22.085567
879.106812	1040.832520	1358.179321	1104.807129	20.159210
879.401978	1040.312378	1376.086304	1113.797729	21.885366
879.697083	1042.244263	1393.027344	1122.045288	22.749393
879.992126	1033.848145	1425.349121	1128.063965	24.065283
880.287109	1035.482788	1460.420044	1140.323853	24.672129
880.582031	1034.665405	1532.047852	1163.209106	25.844036
880.876892	1040.832520	1653.978516	1201.177856	26.151249
881.171753	1044.101807	1886.174438	1264.632324	26.189014
881.466492	1052.572266	2248.028809	1366.724121	26.278818
881.761230	1055.544434	2738.278076	1496.754028	26.219812
882.055786	1049.154419	3237.592529	1635.402954	26.788446
882.350403	1040.758179	3593.948242	1728.950073	26.954199
882.644958	1030.281616	3671.371826	1745.073730	27.064281
882.939453	1030.652954	3486.209229	1682.585083	26.549265
883.233826	1036.299927	3143.302490	1588.815063	26.222805
883.528137	1044.176025	2769.857178	1496.159546	26.191601
883.822449	1049.228638	2453.178955	1411.900391	25.832235
884.116577	1045.439209	2190.592773	1342.724487	25.960299
884.410828	1043.804565	1993.913574	1288.186279	25.721439
884.704956	1046.033691	1829.630249	1250.440552	26.085728
884.999023	1044.176147	1721.742676	1221.016602	26.099350
885.292969	1045.736450	1640.678345	1197.165527	25.452751
885.586914	1045.364868	1586.957642	1175.840576	24.091110
885.880798	1051.977905	1544.679321	1157.785034	21.474899
886.174622	1053.761108	1508.345337	1150.577637	21.297819
886.468384	1050.343262	1477.509644	1147.234009	22.682203
886.762085	1043.135864	1457.893555	1141.512695	23.719110
887.055664	1035.259766	1439.763794	1145.747925	27.314476
887.349304	1030.430176	1428.395508	1140.695435	27.707253
887.642822	1034.591064	1405.213013	1137.797729	27.846884
887.936340	1034.665405	1384.036743	1129.104126	27.031044
888.229736	1042.541504	1367.615845	1116.992798	22.902851
888.523071	1038.826294	1358.550903	1114.317871	23.611437
888.816284	1043.433105	1351.046387	1105.550171	20.193233
889.109619	1042.392944	1330.910278	1110.677124	23.667271
889.402710	1040.461060	1306.762085	1106.367554	24.748869
889.695862	1038.157715	1294.947876	1103.246826	25.347198
889.988892	1032.362061	1283.653809	1096.113770	25.369598
890.281921	1030.281494	1269.239136	1086.677368	23.600782
>>>>>End Processed Spectral Data<<<<<
