Jaz Data File
++++++++++++++++++++++++++++++++++++
Date: Fri Jun 04 12:09:09 2021
User: jaz
Dark Spectrum Present: Yes
Reference Spectrum Present: Yes
Processed Spectrum Present: Yes
Spectrometers: JAZA3586
Integration Time (usec): 31200 (JAZA3586)
Spectra Averaged: 10 (JAZA3586)
Boxcar Smoothing: 1 (JAZA3586)
Correct for Electrical Dark: No (JAZA3586)
Strobe/Lamp Enabled: Yes (JAZA3586)
Correct for Detector Non-linearity: No (JAZA3586)
Correct for Stray Light: No (JAZA3586)
Number of Pixels in Processed Spectrum: 2048
>>>>>Begin Processed Spectral Data<<<<<
W	D	R	S	P
191.335022	0.000000	0.000000	0.000000	0.000000
191.713211	324.777222	320.319000	313.631805	249.996918
192.091385	651.337646	648.068298	636.328552	459.085236
192.469528	982.356262	979.384216	962.368835	672.514038
192.847641	986.740173	995.136414	978.121033	-102.654762
193.225739	994.839172	1006.058838	993.130188	-15.232044
193.603790	995.062073	1010.517029	997.514099	15.865631
193.981842	1012.523193	1014.975159	1003.383972	-372.730438
194.359863	1015.420959	1010.517090	1001.823547	277.279236
194.737854	1023.297058	1017.204285	1009.773987	221.952637
195.115829	1015.123779	1014.529297	1013.489075	274.979462
195.493774	1016.386902	1019.804871	1012.820374	-104.346428
195.871704	1024.931763	1020.696472	1008.436523	389.471252
196.249603	1030.355835	1029.241333	1013.043274	1553.389893
196.627457	1035.482788	1037.340332	1008.659363	-1444.026367
197.005310	1037.340332	1032.287720	1012.894592	483.823792
197.383133	1030.132935	1023.891418	1006.355957	380.948761
197.760910	1030.875977	1019.656250	1008.808044	196.688675
198.138687	1021.142273	1021.142273	1012.968994	0.000000
198.516449	1024.188843	1024.783081	1011.260071	-2175.688232
198.894180	1018.244446	1026.937866	1008.288025	-114.528236
199.271866	1010.219788	1026.120483	1004.944336	-33.177490
199.649536	1010.219910	1019.210449	996.028015	-157.853653
200.027191	1016.089783	1017.650085	995.507813	-1319.101074
200.404816	1020.919434	1015.123779	992.238525	494.869202
200.782410	1016.164063	1032.213379	1001.452087	-91.667297
201.159988	1007.173340	1040.238159	1012.151672	15.056282
201.537537	999.966003	1055.544556	1006.058899	10.962674
201.915070	1007.321960	1056.510376	1003.383972	-8.005926
202.292557	1005.761658	1062.528931	1001.526367	-7.460796
202.670029	1017.575745	1060.002563	998.405579	-45.184074
203.047485	1006.876160	1051.977905	992.461426	-31.960480
203.424911	1005.167175	1046.256592	985.254089	-48.462811
203.802292	1006.356140	1049.154419	992.907227	-31.423960
204.179688	1011.854492	1056.287476	999.520203	-27.759310
204.557037	1014.677917	1058.442261	1004.944275	-22.241034
204.934357	1008.287903	1061.265747	1006.578918	-3.225847
205.311661	1008.733704	1057.253418	999.371582	-19.295500
205.688934	1011.854431	1057.401978	996.250916	-34.257641
206.066177	1008.956543	1055.098633	996.325195	-27.374893
206.443390	1002.195007	1063.123413	999.817383	-3.902325
206.820587	992.684265	1054.578613	996.919617	6.842873
207.197769	993.873230	1054.727173	987.631836	-10.256351
207.574921	999.445862	1044.547607	986.591553	-28.500690
207.952042	1004.498535	1055.618774	985.997070	-36.192055
208.329147	1001.526428	1052.795288	989.712219	-23.043634
208.706223	1000.783386	1064.089233	1001.303467	0.821536
209.083267	999.222961	1053.241089	1000.040344	1.513164
209.460297	1000.411804	1057.996460	998.034180	-4.128920
209.837280	998.331360	1054.355591	985.254089	-23.342169
210.214264	1001.674988	1055.692993	986.294373	-28.473127
210.591217	1003.161072	1056.510376	990.975403	-22.841290
210.968124	1004.424133	1051.755005	985.699951	-39.560188
211.345016	1007.767761	1057.253418	984.436768	-47.146980
211.721893	1011.780212	1055.395874	983.916565	-63.884499
212.098724	1008.139404	1055.990234	985.105469	-48.136963
212.475555	996.993958	1055.470093	986.591492	-17.789249
212.852356	992.312927	1049.451660	981.241699	-19.376047
213.229126	994.021790	1052.943848	981.018799	-22.068121
213.605865	1000.337463	1045.513550	981.984802	-40.624725
213.982590	996.622375	1044.027466	984.808289	-24.921558
214.359283	994.913391	1042.912964	991.049805	-8.049210
214.735931	995.879395	1045.142090	989.860901	-12.217142
215.112579	996.325195	1047.073853	986.888733	-18.594507
215.489197	993.278809	1040.386719	991.644226	-3.469868
215.865799	991.644104	1045.885132	984.659668	-12.876666
216.242355	1002.343750	1049.303101	992.833008	-20.253138
216.618896	1012.523193	1054.207031	986.442871	-62.566990
216.995407	1015.420959	1044.547729	993.353027	-75.765121
217.371902	1012.523132	1039.049316	981.539001	-116.805832
217.748367	1008.585022	1036.523071	979.458496	-104.253975
218.124802	1005.390137	1041.947144	972.845520	-89.024292
218.501236	1001.897949	1049.823120	973.662842	-58.914986
218.877609	998.702881	1056.213257	972.696960	-45.219528
219.253983	995.062012	1060.448364	977.452332	-26.931736
219.630295	993.278809	1061.117188	985.774231	-11.062436
220.006592	998.108582	1059.631104	994.021790	-6.642757
220.382889	1001.897949	1062.008789	993.130188	-14.585990
220.759140	1001.749329	1060.299805	992.238525	-16.243767
221.135391	997.142395	1060.002563	990.009460	-11.347304
221.511581	993.873230	1055.841675	994.764832	1.438799
221.887772	992.164246	1054.132690	988.820618	-5.395694
222.263931	989.712219	1059.854004	983.024963	-9.533912
222.640060	993.650330	1061.339966	979.607117	-20.746473
223.016159	989.786621	1069.959106	978.343933	-14.272588
223.392212	996.845398	1073.822876	979.458496	-22.586998
223.768265	998.257019	1080.361572	980.721619	-21.357403
224.144302	1003.235352	1078.875488	991.867004	-15.029517
224.520294	995.507813	1072.411255	997.588379	2.705427
224.896286	991.123962	1071.370972	996.919617	7.222268
225.272217	987.706055	1077.092285	998.182800	11.720760
225.648148	992.387146	1084.671143	996.845276	4.830881
226.024048	989.117737	1084.596802	992.833008	3.891189
226.399902	988.300476	1083.928101	994.690491	6.682185
226.775772	987.557434	1083.184937	992.164307	4.817518
227.151581	993.130188	1084.299561	998.257080	5.623481
227.527374	996.845276	1092.324341	995.284973	-1.634183
227.903137	998.479919	1098.268555	995.136414	-3.350588
228.278870	1002.269348	1112.014526	994.987732	-6.635022
228.654572	1005.612976	1116.249878	992.684265	-11.685713
229.030273	1004.424133	1127.618164	996.473694	-6.453591
229.405930	997.959900	1133.636719	1000.560364	1.916660
229.781555	999.297302	1137.500366	995.582214	-2.688137
230.157181	998.851501	1142.850220	993.650208	-3.612042
230.532761	1003.755432	1142.850220	986.294250	-12.553441
230.908325	1004.424133	1139.283569	988.523438	-11.790569
231.283859	1004.944336	1130.367310	987.260254	-14.099556
231.659332	1007.396301	1123.754395	988.077637	-16.602768
232.034821	1005.612976	1114.615112	988.969238	-15.269185
232.410263	1003.681152	1117.215698	993.873230	-8.638712
232.785690	999.074402	1116.918457	994.616211	-3.783128
233.161087	994.839172	1126.429321	997.811218	2.258563
233.536469	997.811279	1123.308472	992.833008	-3.966839
233.911804	997.588379	1130.144409	995.062012	-1.905886
234.287140	1001.972168	1134.528320	992.238525	-7.343033
234.662430	1002.566650	1142.701538	989.712219	-9.172898
235.037704	1008.436523	1142.404297	992.981628	-11.536278
235.412933	1001.749268	1141.364136	995.284973	-4.630090
235.788162	1004.275574	1133.413574	1000.337585	-3.049442
236.163345	999.222961	1136.162964	993.353210	-4.286367
236.538513	1005.687317	1143.147339	987.631836	-13.135077
236.913635	994.839172	1149.983276	988.449036	-4.118840
237.288742	989.489441	1156.893311	985.105469	-2.618800
237.663834	991.718445	1160.014038	982.802185	-5.297976
238.038879	995.805115	1165.958252	985.551331	-6.026209
238.413910	996.845398	1169.896362	997.737000	0.515225
238.788910	991.049744	1163.209106	1003.458252	7.207571
239.163879	989.786560	1171.456665	1001.154785	6.257620
239.538834	990.603821	1182.379272	995.730713	2.673383
239.913757	993.278748	1208.236694	995.284973	0.933311
240.288651	1000.114685	1226.960938	1003.755432	1.604940
240.663528	1003.755554	1247.245483	1002.789551	-0.396732
241.038361	1005.092957	1268.644653	1004.944336	-0.056391
241.413177	999.891785	1296.805420	1007.544922	2.577564
241.787979	993.353027	1325.634766	1013.043274	5.925768
242.162735	993.947510	1360.854370	1013.860596	5.427286
242.537476	989.935242	1385.745728	1006.207458	4.111113
242.912170	993.130188	1408.333618	1005.464417	2.970647
243.286865	992.015625	1407.219238	1009.848328	4.294930
243.661514	992.312805	1389.906738	1016.907043	6.185768
244.036148	997.439758	1367.615845	1011.854492	3.894021
244.410751	990.901062	1357.436401	1010.888611	5.453103
244.785339	993.650208	1360.111328	1003.012512	2.554788
245.159882	999.074402	1377.572388	1010.665710	3.062449
245.534378	1010.219788	1411.826050	1016.609863	1.591130
245.908890	1012.374695	1467.850220	1014.009216	0.358860
246.283356	1007.842102	1530.487305	1016.089661	1.578042
246.657791	998.925842	1606.573364	1009.922546	1.809718
247.032196	1001.080566	1677.532593	1009.848206	1.296121
247.406586	997.959778	1726.943848	1010.665588	1.742948
247.780960	1000.114563	1733.259399	1015.346680	2.077641
248.155289	1002.046448	1705.990356	1030.132813	3.989858
248.529602	1000.188965	1661.705933	1026.714966	4.009875
248.903870	1006.281738	1609.322632	1017.427185	1.848207
249.278122	1001.303406	1566.524048	1010.888489	1.695813
249.652344	998.702881	1524.766113	1010.442688	2.231634
250.026550	989.935120	1488.952148	1016.312561	5.285880
250.400711	990.455322	1464.358032	1006.355957	3.355253
250.774857	991.049805	1458.785522	1004.201233	2.811722
251.148987	992.461487	1472.680054	997.439758	1.036668
251.523071	997.588318	1493.633301	1000.857666	0.659083
251.897125	1003.755371	1523.057251	1004.721436	0.186031
252.271164	1001.006287	1539.403809	1004.349854	0.621022
252.645187	1004.498535	1549.880493	1006.356018	0.340584
253.019165	1007.322083	1538.660767	1004.275574	-0.573365
253.393112	1013.414856	1527.886841	1010.888489	-0.491060
253.767044	1004.944336	1500.692017	1015.569519	2.143264
254.140930	1004.647034	1480.556030	1015.495300	2.279483
254.514801	1002.195129	1470.079468	1010.739929	1.826263
254.888657	1003.978455	1459.082520	1005.761719	0.391837
255.262466	998.034180	1462.500488	1002.120850	0.879864
255.636276	994.467590	1480.556030	1005.910339	2.354047
256.010010	1001.377747	1513.249146	1014.083496	2.482215
256.383759	1003.606873	1549.880371	1023.074158	3.563652
256.757446	1004.944336	1576.480835	1029.464233	4.290172
257.131134	997.959900	1618.461792	1024.263062	4.239014
257.504791	992.387207	1662.671875	1022.777039	4.533869
257.878418	999.594482	1737.420532	1023.297058	3.212488
258.252014	1004.126953	1814.175171	1022.702637	2.293158
258.625580	1008.287903	1932.019165	1024.857422	1.793760
258.999115	1009.996887	2061.008789	1028.423950	1.753269
259.372650	1011.408691	2205.230225	1039.049194	2.315296
259.746124	1007.842102	2316.833008	1039.866577	2.446501
260.119598	1000.783386	2377.092773	1046.182251	3.298594
260.493042	997.662598	2377.315674	1048.188477	3.662216
260.866425	997.216797	2318.096436	1053.909790	4.292064
261.239838	994.913391	2215.632813	1045.959351	4.181629
261.613159	986.294373	2109.751465	1033.848022	4.232797
261.986511	993.501648	2017.987427	1028.423950	3.408764
262.359802	995.582092	1960.402954	1029.984253	3.565653
262.733063	997.885437	1926.000977	1038.974976	4.427201
263.106293	991.644104	1903.412720	1038.454712	5.134045
263.479523	990.603943	1888.626465	1026.120483	3.954972
263.852692	993.724609	1878.224121	1019.730530	2.940185
264.225861	996.993835	1871.908325	1020.770752	2.717628
264.598969	996.028015	1878.001343	1028.646851	3.698392
264.972076	1000.040283	1891.004272	1029.538574	3.310829
265.345154	991.792786	1939.003784	1029.687134	4.000624
265.718201	990.529602	1986.631714	1031.396118	4.102643
266.091217	992.535706	2048.600342	1032.213501	3.757137
266.464203	1001.303467	2096.896973	1037.934692	3.343505
266.837158	1003.978333	2153.590088	1037.637573	2.927879
267.210114	999.743164	2187.917725	1041.798462	3.539488
267.583038	993.724609	2211.991943	1040.461060	3.836305
267.955902	995.062073	2216.301514	1041.947144	3.839138
268.328766	994.690491	2224.623535	1041.352539	3.793869
268.701569	1005.092834	2230.939209	1040.089478	2.854896
269.074371	1002.269348	2254.121826	1034.516724	2.575972
269.447144	997.737000	2293.799316	1033.402222	2.751814
269.819885	992.610046	2368.399170	1037.934692	3.294447
270.192596	992.833008	2471.308350	1048.411255	3.759160
270.565277	994.839172	2595.765381	1055.618774	3.796527
270.937927	995.953796	2717.844971	1057.104858	3.551390
271.310577	997.811279	2810.054688	1063.494873	3.624435
271.683136	1000.188965	2878.635986	1073.971558	3.927851
272.055725	994.616211	2899.663818	1071.370972	4.029021
272.428284	997.291077	2881.459717	1067.210083	3.710868
272.800812	993.873230	2824.246338	1058.665161	3.539821
273.173279	992.312805	2748.977783	1057.179077	3.692580
273.545776	986.517273	2702.315430	1056.733276	4.092323
273.918152	986.145752	2680.173584	1058.516602	4.272117
274.290558	988.449036	2678.687256	1063.717773	4.453144
274.662964	989.415039	2678.093018	1062.974731	4.356052
275.035278	989.489258	2684.631836	1060.299683	4.177255
275.407593	993.575928	2716.953369	1061.562866	3.944983
275.779907	1001.377747	2770.451172	1064.014893	3.540675
276.152161	1005.018555	2823.652100	1066.912720	3.403333
276.524384	1004.498474	2863.701172	1063.123291	3.153224
276.896606	995.805115	2888.072510	1064.089233	3.608587
277.268799	992.907227	2897.657471	1069.661987	4.029650
277.640930	990.455322	2902.858643	1074.863159	4.413705
278.013031	1002.492249	2903.602295	1084.299683	4.303140
278.385162	999.297302	2911.626709	1082.664917	4.359480
278.757233	1001.451965	2918.387939	1077.612427	3.973031
279.129272	990.306641	2942.387695	1068.844727	4.023301
279.501282	988.523438	2977.978516	1067.953003	3.992529
279.873230	987.780457	3051.092529	1063.346313	3.662357
280.245178	989.637939	3150.658203	1067.878784	3.620551
280.617126	999.000183	3270.582764	1069.290527	3.094334
280.988983	996.028015	3393.330811	1086.603027	3.778205
281.360870	1007.321960	3510.506104	1087.123047	3.187983
281.732697	1001.154846	3589.712646	1098.119873	3.745909
282.104492	1013.489075	3616.313477	1092.175659	3.023123
282.476288	1002.492371	3615.942139	1096.039429	3.579448
282.848053	1006.356140	3617.948486	1083.705200	2.961759
283.219757	999.594543	3628.721924	1087.940430	3.360274
283.591461	998.777161	3628.796631	1087.197388	3.361961
283.963135	1004.424133	3654.059326	1094.924805	3.415590
284.334747	1002.715149	3715.433350	1093.661743	3.352600
284.706360	1006.950500	3799.915283	1091.432617	3.024818
285.077942	1006.504639	3889.450195	1098.640015	3.195876
285.449524	1009.773987	3978.687744	1112.014526	3.443702
285.821014	1010.145508	4007.963135	1114.392212	3.477420
286.192535	1001.303406	4052.396484	1113.574829	3.679712
286.563995	1007.322021	4046.526367	1110.974243	3.410505
286.935425	1008.585205	4038.724609	1112.609009	3.432971
287.306824	1010.517029	3954.093506	1103.841187	3.170434
287.678223	1003.829773	3867.233643	1089.055054	2.976363
288.049561	998.257080	3807.197266	1090.838257	3.295947
288.420898	998.257080	3813.289795	1091.581177	3.315205
288.792145	999.222961	3854.528076	1095.073486	3.356927
289.163452	1001.600769	3958.254639	1096.633789	3.214209
289.534668	998.628601	4071.195068	1100.423340	3.313020
289.905914	996.622375	4196.989746	1116.175415	3.735604
290.277039	995.136292	4312.010254	1116.918457	3.671595
290.648193	999.445984	4366.102051	1119.519043	3.566538
291.019318	1003.532532	4367.514160	1114.912231	3.310948
291.390381	1004.275574	4291.799316	1110.156860	3.220700
291.761475	1008.436523	4220.914551	1107.927856	3.097028
292.132507	997.662598	4177.818848	1106.293213	3.415889
292.503510	997.216797	4169.720215	1106.739136	3.452237
292.874481	995.284973	4208.357422	1111.420044	3.614455
293.245422	997.811218	4309.260254	1113.500610	3.493618
293.616364	996.845276	4454.894043	1127.618042	3.781692
293.987213	998.405579	4609.889160	1130.738770	3.664233
294.358093	1000.114563	4721.343262	1135.791382	3.646022
294.728943	1000.931946	4824.178223	1131.704712	3.420464
295.099731	996.548157	4936.003906	1133.413696	3.474225
295.470490	996.250916	5057.712402	1132.373535	3.351568
295.841248	997.959900	5153.933594	1136.534302	3.334343
296.211975	994.616211	5265.016113	1139.878052	3.401598
296.582642	992.238586	5383.826172	1147.382690	3.532757
296.953308	993.278809	5451.516113	1149.611694	3.506608
297.323883	995.136292	5441.485352	1148.571411	3.450811
297.694519	1000.188782	5312.867188	1143.147339	3.314844
298.065063	997.291077	5188.484375	1133.042114	3.238959
298.435608	997.662598	5003.916504	1130.961670	3.327275
298.806122	996.325195	4829.751465	1128.509766	3.448210
299.176575	996.622375	4654.916504	1129.401489	3.629536
299.547028	1000.931946	4559.289063	1118.924805	3.315936
299.917450	1000.263245	4522.806641	1113.426270	3.212537
300.287872	1000.708984	4524.218262	1110.380005	3.112551
300.658234	996.028015	4503.265137	1113.352051	3.345198
301.028564	993.873230	4469.754395	1111.494507	3.383927
301.398865	996.176575	4438.918945	1115.581055	3.468296
301.769135	1007.842102	4389.656250	1111.643066	3.069387
302.139374	1009.699707	4354.957031	1114.243652	3.125139
302.509583	1009.105286	4296.183105	1101.760742	2.818779
302.879791	994.839111	4255.391113	1097.079590	3.135680
303.249939	1001.154846	4199.515625	1094.479004	2.917875
303.620087	998.331360	4155.528320	1100.423340	3.233627
303.990173	998.257019	4135.689941	1103.618286	3.358200
304.360260	988.746399	4138.661621	1110.528564	3.866205
304.730286	995.805115	4139.330566	1106.813354	3.531329
305.100281	996.250977	4138.438477	1105.921753	3.490268
305.470276	994.319031	4134.945801	1104.138428	3.496735
305.840179	990.529602	4166.227539	1103.172485	3.547028
306.210144	993.130188	4203.082031	1100.125977	3.333252
306.579987	1000.783386	4259.700684	1094.627686	2.879616
306.949890	998.034180	4310.003906	1102.280884	3.147574
307.319702	1001.154785	4391.067871	1117.587280	3.434675
307.689484	997.142395	4482.237793	1124.125854	3.643615
308.059265	999.297180	4595.920410	1132.744873	3.710361
308.429016	990.158020	4694.817383	1127.320679	3.702436
308.798737	991.346924	4780.339844	1123.159790	3.478837
309.168396	987.334534	4824.252930	1122.193970	3.514785
309.538055	993.724609	4839.855957	1131.184570	3.573980
309.907684	996.325195	4837.999023	1143.444458	3.829561
310.277313	998.554382	4872.400879	1140.769653	3.671164
310.646851	994.244690	4868.239746	1139.358032	3.745832
311.016388	992.684265	4854.270996	1129.549927	3.544286
311.385895	990.083679	4778.333496	1132.670776	3.763931
311.755371	1001.303467	4719.560547	1125.760620	3.347191
312.124817	998.554382	4664.501953	1117.141479	3.234828
312.494232	1003.532532	4613.753418	1106.590454	2.854615
312.863617	1008.213623	4593.394043	1102.578003	2.632068
313.232971	1010.814209	4627.944824	1107.259155	2.666338
313.602295	1007.693542	4714.656250	1110.528442	2.774101
313.971619	997.737000	4810.357910	1117.364258	3.137665
314.340820	1002.120789	4834.283691	1126.429199	3.243819
314.710083	999.817383	4814.593262	1123.828735	3.250816
315.079285	1001.749329	4727.510742	1121.971069	3.226770
315.448486	1002.938171	4639.536133	1109.191040	2.921766
315.817596	1006.133118	4527.933594	1109.191040	2.926285
316.186707	1004.349854	4443.079590	1104.584106	2.914863
316.555786	1004.424133	4343.291504	1108.819458	3.126669
316.924866	1004.870056	4280.951660	1100.794678	2.928029
317.293884	1006.281738	4248.629395	1096.410889	2.779750
317.662872	1002.789551	4267.799805	1088.460449	2.623909
318.031830	999.445862	4306.065918	1100.497559	3.056042
318.400757	998.182800	4358.151855	1103.989868	3.149049
318.769684	999.743103	4402.287598	1113.054810	3.330205
319.138550	1005.910217	4418.634277	1107.259155	2.969737
319.507416	1006.727539	4388.244629	1111.345825	3.093827
319.876190	995.730774	4335.786621	1108.522339	3.376936
320.244995	992.015625	4252.716309	1105.475952	3.479630
320.613770	988.746338	4205.311035	1101.240601	3.497342
320.982483	997.291199	4192.382813	1093.513184	3.011556
321.351166	993.353088	4239.192871	1089.723755	2.969052
321.719818	993.204407	4319.142578	1085.637085	2.779146
322.088440	982.579102	4458.089355	1095.519287	3.249600
322.457062	989.712219	4624.452637	1111.494385	3.350505
322.825623	997.736877	4792.673828	1127.766724	3.426403
323.194183	1003.086731	4916.388184	1142.255737	3.556307
323.562653	1000.263245	4990.839355	1136.980225	3.425996
323.931183	989.043518	5006.071777	1130.590210	3.523667
324.299591	991.644104	4973.823730	1116.769897	3.142143
324.668060	987.780273	4919.359863	1122.788452	3.433942
325.036407	1005.984436	4848.400879	1120.410767	2.977978
325.404755	1009.476746	4779.819824	1125.463379	3.076289
325.773102	1015.792480	4714.655762	1127.915405	3.031281
326.141388	1004.424133	4629.876465	1124.943237	3.324250
326.509674	1007.990723	4539.079102	1111.197144	2.922793
326.877899	1009.179626	4440.851074	1096.559570	2.546279
327.246124	1007.990784	4388.096191	1093.215942	2.521376
327.614288	999.668762	4338.833008	1095.444946	2.868268
327.982422	995.210632	4346.708984	1097.079712	3.039509
328.350525	992.015625	4358.968750	1099.234497	3.184448
328.718628	995.582214	4409.792480	1103.172485	3.151249
329.086700	998.777161	4432.380371	1111.122803	3.271946
329.454712	1004.201355	4497.915527	1114.169312	3.147595
329.822693	1001.526428	4539.376465	1120.484985	3.362453
330.190674	1003.383972	4600.675781	1119.593384	3.230469
330.558563	1001.303467	4633.071777	1127.692383	3.480093
330.926483	1004.052673	4712.798828	1127.098022	3.317708
331.294312	999.371582	4811.695801	1136.534424	3.597880
331.662231	998.331360	4927.458984	1132.744995	3.420954
332.029999	999.297363	5031.631348	1137.574707	3.429214
332.397766	998.554260	5103.556641	1139.655151	3.437291
332.765503	993.575989	5155.196777	1143.072998	3.592279
333.133240	988.671936	5168.720215	1149.983154	3.859075
333.500916	993.055847	5167.233887	1150.874878	3.780841
333.868561	999.891663	5140.782227	1161.054199	3.891978
334.236176	1005.167175	5111.952637	1161.054321	3.795843
334.603790	1001.303467	5078.293457	1156.893433	3.816295
334.971344	1003.458252	5057.860840	1152.435181	3.674448
335.338867	1001.154846	5041.736816	1153.475464	3.769769
335.706360	1005.390137	5035.421387	1154.664429	3.704048
336.073853	1004.052734	5062.318848	1154.441406	3.705737
336.441284	1004.201233	5092.931152	1154.887207	3.685398
336.808655	1005.835938	5138.627441	1160.088501	3.732406
337.176086	1001.972168	5168.497559	1171.679688	4.073119
337.543396	1010.145508	5191.753906	1181.859131	4.106401
337.910706	1005.835938	5199.927246	1183.865234	4.244764
338.277954	1007.767761	5195.246582	1175.097534	3.995955
338.645264	999.000061	5167.977051	1167.518677	4.042205
339.012421	1001.006287	5107.791504	1164.100830	3.971344
339.379669	1003.606873	5013.278809	1179.555786	4.388113
339.746796	1003.903992	4914.010254	1186.465820	4.668973
340.113953	1005.464355	4836.438477	1194.787720	4.941912
340.481018	999.966003	4811.324219	1193.970581	5.090169
340.848114	1003.606873	4831.980469	1194.936401	4.997672
341.215118	993.501709	4903.310547	1198.280029	5.237553
341.582153	995.136414	5049.092773	1199.543091	5.042153
341.949066	992.535706	5225.933105	1214.477905	5.242650
342.316010	999.222961	5471.132324	1228.744019	5.132507
342.682922	998.851379	5732.157715	1251.555054	5.338840
343.049835	996.102234	6093.863281	1268.050171	5.334654
343.416656	997.216797	6416.634277	1301.189209	5.608950
343.783478	997.439758	6659.307129	1315.158203	5.611549
344.150269	1004.201355	6766.451660	1332.173462	5.691736
344.516998	1007.173523	6767.417480	1326.080688	5.536348
344.883728	1008.510925	6670.601563	1321.622559	5.529965
345.250427	1005.092957	6540.942871	1315.158203	5.601041
345.617065	1000.486084	6379.928223	1317.610229	5.895112
345.983704	994.616150	6254.728516	1313.672241	6.065576
346.350281	991.644043	6110.135254	1304.012695	6.102748
346.716827	991.718445	5989.914063	1296.508179	6.097995
347.083405	996.028015	5887.152832	1300.669067	6.228446
347.449860	996.250916	5824.812500	1305.796021	6.410711
347.816376	994.244690	5801.927734	1302.378052	6.409186
348.182770	993.055908	5800.738281	1306.316040	6.515824
348.549194	995.284973	5837.146973	1310.700073	6.514335
348.915558	989.043457	5899.932129	1325.857788	6.858521
349.281921	994.244690	5990.433594	1327.046509	6.661114
349.648193	994.913391	6048.166504	1335.739868	6.744695
350.014526	1004.870056	6100.921875	1342.947388	6.634103
350.380737	998.257080	6128.117188	1352.903931	6.913382
350.746948	990.975403	6184.884277	1357.882202	7.064175
351.113159	989.043457	6238.232910	1364.495239	7.152567
351.479309	994.839111	6314.468262	1377.052368	7.184961
351.845428	1003.086731	6439.371094	1393.770386	7.186594
352.211517	1006.133118	6566.503418	1401.795044	7.115748
352.577576	1005.984558	6695.492188	1411.603027	7.129237
352.943604	1002.046448	6835.998535	1417.175781	7.115748
353.309601	997.291016	6998.424316	1431.590454	7.236957
353.675537	1000.040344	7198.744629	1444.742188	7.174110
354.041473	1001.377747	7352.551270	1461.311523	7.241714
354.407379	1004.424316	7481.541016	1473.497192	7.242002
354.773254	1001.674988	7615.880371	1495.788086	7.470483
355.139038	1003.161133	7781.575684	1509.236938	7.465991
355.504913	1001.303528	8055.900879	1530.784668	7.505476
355.870636	1000.411865	8361.879883	1550.326172	7.470172
356.236389	997.365417	8667.709961	1582.722290	7.631429
356.602081	1000.634766	8959.570313	1608.208008	7.633851
356.967804	1005.687317	9142.429688	1620.170898	7.551961
357.333405	1007.024719	9274.093750	1634.436890	7.589293
357.699036	1000.857727	9248.905273	1640.678345	7.757237
358.064606	992.833008	9188.645508	1644.913696	7.956266
358.430176	989.786560	9084.622070	1640.083984	8.033485
358.795654	991.792786	9119.990234	1647.588501	8.068157
359.161163	993.799011	9327.740234	1668.616211	8.097216
359.526581	998.405701	9764.938477	1690.684082	7.896832
359.892029	994.839172	10344.574219	1728.949829	7.851673
360.257416	990.603821	10962.995117	1780.961914	7.925462
360.622772	989.860840	11473.157227	1837.952026	8.089929
360.988098	994.096130	11787.458008	1870.868164	8.123252
361.353394	998.034180	11907.828125	1884.019897	8.121013
361.718658	998.777161	11714.269531	1864.032349	8.074806
362.083893	1002.938171	11263.995117	1828.218384	8.042838
362.449097	1006.801941	10592.967773	1774.646118	8.009919
362.814209	1007.990723	9898.906250	1725.754883	8.073006
363.179382	1012.151611	9242.887695	1676.492310	8.071462
363.544434	1006.578918	8776.414063	1641.124146	8.166779
363.909546	1004.795715	8475.637695	1610.585938	8.108727
364.274536	1000.709045	8326.363281	1594.090454	8.100046
364.639587	1009.030945	8202.649414	1580.270386	7.940919
365.004517	1009.179504	8141.498047	1584.505493	8.066465
365.369507	1011.928772	8078.489746	1577.966797	8.010092
365.734344	1003.086853	8062.216797	1574.697388	8.097465
366.099274	998.554260	8031.083984	1567.267212	8.086890
366.464081	994.021790	7985.388184	1565.855469	8.179141
366.828918	997.068176	7913.017090	1550.994995	8.009412
367.193665	999.297302	7822.218750	1550.549194	8.079412
367.558411	1000.783386	7781.278809	1553.298462	8.148594
367.923126	1003.383972	7694.195313	1556.419067	8.265591
368.287781	1003.829773	7640.400879	1543.193237	8.127140
368.652435	1001.600647	7562.828125	1532.196289	8.086835
369.017059	999.000061	7586.158691	1532.716431	8.102376
369.381653	1004.052673	7645.898438	1537.769165	8.035666
369.746185	998.182800	7748.213379	1546.165405	8.118224
370.110687	1001.154968	7834.479004	1553.744263	8.086683
370.475220	995.656555	7899.345215	1554.264282	8.091439
370.839661	999.520264	7945.635254	1557.756470	8.036668
371.204041	1001.154968	7976.174316	1562.734863	8.051302
371.568451	999.445984	7994.155762	1565.781250	8.096622
371.932770	995.433594	7982.712891	1560.728638	8.090345
372.297150	986.145752	7972.979004	1550.400513	8.075974
372.661377	988.300537	7986.947754	1546.833984	7.980591
373.025696	995.136414	8032.050293	1544.233398	7.803093
373.389862	998.108459	8078.266113	1548.245728	7.770127
373.754059	1004.201233	8179.688965	1554.115723	7.663793
374.118225	1000.188965	8321.904297	1564.220825	7.703548
374.482361	998.554382	8527.128906	1575.812012	7.667555
374.846436	997.216797	8764.081055	1586.065796	7.581554
375.210510	997.662659	9083.210938	1615.043945	7.635614
375.574524	1000.337585	9402.637695	1639.860962	7.611290
375.938538	994.616211	9746.436523	1666.535767	7.677484
376.302460	1000.263184	10008.353516	1682.362183	7.572072
376.666412	1000.114563	10181.107422	1693.507690	7.552485
377.030304	1002.492249	10154.804688	1690.386841	7.516074
377.394196	1001.154785	10007.387695	1680.801758	7.546407
377.757996	1001.006165	9760.628906	1657.099243	7.489969
378.121796	1001.452087	9459.255859	1631.613403	7.450650
378.485565	1005.910156	9160.782227	1606.944946	7.370254
378.849304	1007.693420	8930.295898	1589.781128	7.347178
379.212982	1008.139343	8808.661133	1582.350952	7.361195
379.576630	1000.634766	8729.752930	1568.084595	7.341715
379.940277	1002.715271	8711.844727	1560.134277	7.230635
380.303864	1007.842102	8668.898438	1561.620483	7.228486
380.667450	1010.145508	8694.978516	1563.552246	7.201285
381.030945	1005.018555	8684.204102	1567.044312	7.318820
381.394501	996.028015	8754.197266	1565.186890	7.336252
381.757935	994.839172	8804.203125	1578.041138	7.467983
382.121399	993.575989	8908.152344	1590.524048	7.542388
382.484741	1002.640930	9061.885742	1602.264038	7.440190
382.848145	1003.458252	9231.147461	1607.762207	7.344759
383.211487	1011.631592	9376.854492	1614.003784	7.200911
383.574768	999.966003	9443.578125	1612.443359	7.253736
383.938019	996.696716	9516.171875	1606.127563	7.153385
384.301270	986.442871	9560.159180	1606.499146	7.232059
384.664459	982.950684	9594.933594	1609.173950	7.271534
385.027649	989.266418	9611.057617	1611.625977	7.218449
385.390778	993.724548	9730.238281	1622.251343	7.194252
385.753876	1003.681152	9835.897461	1632.653687	7.121344
386.116943	1000.486145	9972.688477	1636.071655	7.083941
386.479980	1007.322083	9987.919922	1639.340942	7.037603
386.842987	1014.752380	10002.707031	1643.724609	6.997946
387.205994	1022.033997	9967.784180	1657.990845	7.109039
387.568909	1019.953552	9966.893555	1651.452148	7.058263
387.931793	1011.185791	9916.217773	1643.278931	7.098156
388.294678	1004.647156	9890.137695	1629.384277	7.030981
388.657471	1001.897888	9859.375977	1628.046875	7.069156
389.020294	1005.910339	9940.887695	1638.523438	7.080187
389.383057	993.947571	10127.386719	1662.226074	7.316833
389.745819	988.374817	10369.092773	1680.801758	7.381385
390.108521	984.659668	10664.297852	1693.656128	7.324617
390.471191	991.718445	10938.176758	1710.151489	7.223004
390.833801	994.319031	11219.041992	1730.213257	7.197205
391.196442	990.306641	11382.062500	1753.395630	7.343215
391.558960	998.331360	11445.071289	1759.637085	7.287496
391.921509	1001.972168	11374.334961	1754.733032	7.257371
392.284027	1010.962830	11326.335938	1742.101563	7.087855
392.646484	1009.773926	11225.878906	1731.847778	7.067995
393.008911	1011.557190	11209.457031	1729.470093	7.039812
393.371307	1003.681152	11222.460938	1731.773438	7.125041
393.733673	996.176575	11245.940430	1733.259399	7.191218
394.096008	989.563660	11150.609375	1729.544434	7.282526
394.458344	986.814453	10986.473633	1717.432983	7.306434
394.820587	986.294250	10728.347656	1696.851196	7.293708
395.182831	985.922791	10488.423828	1674.188843	7.242999
395.545013	986.071472	10202.506836	1651.080688	7.215471
395.907196	987.483154	10016.674805	1644.690796	7.278699
396.269287	993.650330	9920.750977	1634.808472	7.182154
396.631409	1000.411865	9885.902344	1638.375000	7.179831
396.993469	1002.343750	9850.311523	1630.201660	7.096069
397.355530	994.467590	9852.168945	1626.189453	7.131894
397.717499	992.684387	9910.942383	1625.074829	7.090964
398.079468	995.879395	9966.892578	1627.229492	7.037667
398.441376	1008.139343	9970.606445	1624.331665	6.875254
398.803284	1009.922546	9926.843750	1617.644531	6.815379
399.165131	1008.733704	9891.327148	1613.706543	6.810768
399.526978	1003.532532	9874.980469	1619.947876	6.948306
399.888763	998.777161	9868.589844	1609.768555	6.888436
400.250519	1000.114563	9874.831055	1607.464966	6.843603
400.612244	999.520203	9899.350586	1604.195679	6.794236
400.973938	998.405579	9981.604492	1617.198730	6.888338
401.335602	996.919617	10077.380859	1622.028320	6.884108
401.697205	997.142517	10231.187500	1630.127319	6.854903
402.058807	1003.978333	10414.715820	1636.368774	6.719882
402.420349	1000.857666	10687.109375	1647.662964	6.677560
402.781860	1004.795654	10948.581055	1657.396484	6.562901
403.143341	1003.755432	11162.051758	1671.365601	6.572069
403.504822	1005.687317	11373.815430	1691.278442	6.612487
403.866241	1002.715271	11518.260742	1710.374390	6.729647
404.227631	1001.377747	11672.882813	1716.318481	6.699531
404.588959	1003.160950	11688.413086	1714.237915	6.654751
404.950287	1002.343689	11643.235352	1706.807739	6.620348
405.311554	1002.269348	11493.218750	1694.324829	6.596691
405.672821	996.845276	11386.296875	1681.544922	6.590335
406.034027	990.529541	11247.871094	1668.393188	6.608571
406.395203	990.306641	11085.445313	1660.814453	6.641888
406.756348	998.925781	10931.489258	1644.022095	6.494761
407.117493	998.257019	10876.804688	1638.003540	6.476119
407.478516	1003.012390	10936.617188	1645.136353	6.464159
407.839600	999.297302	11028.976563	1659.699829	6.584483
408.200592	1003.458191	11171.785156	1673.520142	6.589697
408.561554	995.879395	11307.015625	1665.346802	6.492663
408.922485	990.306641	11445.665039	1670.770996	6.508284
409.283417	992.387146	11558.381836	1672.182617	6.433805
409.644257	999.520203	11678.530273	1689.718140	6.463127
410.005096	1003.532532	11760.336914	1690.906860	6.390135
410.365906	1003.012451	11745.700195	1685.408569	6.352192
410.726715	998.925781	11679.199219	1680.950562	6.385836
411.087433	997.216797	11597.243164	1679.687378	6.438385
411.448120	999.817383	11546.495117	1679.018555	6.439954
411.808807	998.777161	11513.578125	1672.479980	6.407186
412.169434	999.891785	11468.476563	1665.792603	6.360944
412.530029	999.371643	11535.273438	1665.867065	6.325946
412.890564	997.068176	11606.604492	1666.609985	6.310755
413.251099	996.473816	11787.977539	1670.102417	6.242212
413.611572	1000.857727	11952.632813	1677.904175	6.182070
413.972076	1003.161133	12137.200195	1688.826538	6.158281
414.332489	1005.910339	12266.264648	1693.804810	6.108995
414.692871	1005.835938	12479.215820	1706.584839	6.107606
415.053223	1005.984558	12688.527344	1714.683960	6.066311
415.413574	1012.894714	12997.551758	1737.494751	6.046064
415.773834	1005.761536	13263.184570	1740.021118	5.990326
416.134094	1005.835938	13607.875000	1767.958984	6.047617
416.494263	994.987732	13931.684570	1777.618164	6.049693
416.854462	999.445984	14324.598633	1800.354858	6.010504
417.214630	1001.080566	14791.071289	1814.769531	5.900577
417.574738	1000.411804	15250.484375	1847.165649	5.942102
417.934784	990.678223	15799.062500	1883.871094	6.031670
418.294861	985.848450	16392.888672	1916.341431	6.039402
418.654846	992.832947	17071.125000	1952.824097	5.970728
419.014832	999.817383	17750.623047	1982.842407	5.868524
419.374756	1002.789490	18492.164063	2023.485962	5.836094
419.734680	994.913391	19259.117188	2047.857300	5.765069
420.094543	998.331360	19832.361328	2088.575195	5.788692
420.454376	1005.315735	20193.175781	2107.002197	5.741581
420.814148	1006.727539	20368.306641	2122.457275	5.762597
421.173920	1002.566589	20563.873047	2130.630615	5.766813
421.533691	999.297302	20676.144531	2137.169189	5.782795
421.893341	999.743164	20726.298828	2143.856445	5.799864
422.253021	1001.377747	20677.406250	2121.194092	5.691272
422.612640	999.668762	20600.130859	2120.896973	5.720417
422.972260	999.817383	20613.654297	2114.135498	5.681286
423.331757	997.291199	20652.068359	2127.806885	5.751862
423.691315	996.250916	20829.726563	2126.915527	5.700788
424.050781	1001.674988	20871.408203	2132.191162	5.689640
424.410248	998.628601	20708.912109	2114.358154	5.660647
424.769653	1001.749268	20334.275391	2096.451172	5.662488
425.128998	999.000061	19848.632813	2063.089111	5.645145
425.488373	1004.126953	19335.500000	2041.467285	5.658825
425.847656	1004.424133	18869.398438	2011.820679	5.638947
426.206940	1007.842102	18420.759766	1980.316284	5.584786
426.566193	1003.458191	18019.300781	1955.944824	5.597646
426.925385	1003.235352	17538.490234	1921.988647	5.556330
427.284576	999.966064	17059.236328	1900.960938	5.610435
427.643677	1002.418030	16699.462891	1875.400757	5.561446
428.002777	997.811279	16458.351563	1863.215210	5.597501
428.361847	1003.309570	16254.389648	1854.150024	5.578887
428.720856	1000.337585	16030.589844	1843.004517	5.606472
429.079865	995.879395	15891.643555	1836.837524	5.645619
429.438812	988.597717	15910.441406	1825.097656	5.605875
429.797760	990.529541	15923.890625	1817.073120	5.534880
430.156616	999.520203	15811.247070	1806.745117	5.449904
430.515503	1006.133118	15642.581055	1801.989624	5.437498
430.874268	1015.495300	15597.997070	1798.125977	5.366916
431.233093	1011.631531	15723.198242	1801.172363	5.366803
431.591827	1013.043274	15968.323242	1803.995728	5.288784
431.950562	999.817383	16126.067383	1819.450684	5.418615
432.309204	1005.390137	16281.657227	1823.091431	5.352756
432.667877	996.548096	16419.564453	1837.877563	5.455025
433.026459	1005.687256	16558.212891	1832.899414	5.318829
433.385010	1003.755432	16619.884766	1833.270996	5.311915
433.743561	1005.538757	16620.181641	1828.069824	5.267691
434.102051	994.021790	16617.357422	1833.791016	5.375095
434.460510	990.158142	16657.630859	1842.484497	5.440101
434.818939	990.232422	16627.982422	1832.527954	5.386296
435.177338	997.885559	16591.947266	1819.302246	5.267497
435.535675	999.594482	16554.646484	1806.447632	5.187081
435.894012	999.668762	16573.593750	1805.407349	5.173639
436.252289	1000.337585	16753.925781	1807.710815	5.125012
436.610535	994.839172	16838.556641	1804.961548	5.113209
436.968719	999.000183	17154.714844	1830.819214	5.148760
437.326935	994.467590	17487.294922	1858.162476	5.236791
437.685028	1001.674988	17860.146484	1883.276855	5.229430
438.043152	997.142578	18155.796875	1887.586304	5.189473
438.401215	999.891785	18476.488281	1899.623169	5.148207
438.759277	1001.674988	18901.722656	1910.545776	5.077477
439.117249	1003.755432	19458.470703	1930.013062	5.019084
439.475250	1004.795715	19867.583984	1948.365845	5.002283
439.833130	1005.613037	20347.501953	1981.356445	5.044716
440.191071	1004.944336	20524.865234	1994.582397	5.069888
440.548889	1009.773987	20696.798828	1994.656616	5.002699
440.906708	1006.727600	20553.171875	1984.254272	5.001046
441.264496	1006.356140	20330.265625	1973.554565	5.005190
441.622223	995.879395	20011.357422	1963.523804	5.088720
441.979950	996.028015	19679.521484	1945.022339	5.079319
442.337616	992.684387	19410.693359	1939.969727	5.143256
442.695251	1002.195068	19127.599609	1924.291626	5.087316
443.052887	999.445862	19044.083984	1921.468384	5.109676
443.410461	1003.755432	19163.861328	1911.214478	4.996992
443.768005	998.554260	19419.388672	1912.774902	4.962971
444.125458	998.628601	19710.580078	1930.682007	4.981060
444.482941	997.142517	20100.818359	1951.264038	4.994440
444.840393	1003.383972	20682.830078	1993.021973	5.028790
445.197754	1006.430359	21245.302734	2008.105469	4.949263
445.555084	1007.321960	21679.080078	2023.188843	4.914274
445.912415	995.507813	21935.351563	2028.464233	4.932971
446.269714	987.037415	22058.693359	2028.241333	4.941253
446.626953	987.111633	22054.015625	2031.584961	4.957887
446.984161	995.953796	21853.843750	2015.015625	4.885738
447.341309	1005.167236	21561.757813	2007.213867	4.874576
447.698456	1001.154846	21201.763672	1998.966187	4.939511
448.055542	997.068176	21023.509766	1985.740234	4.936833
448.412598	997.514099	20693.380859	1967.536011	4.925002
448.769653	1000.263245	20312.357422	1942.198730	4.877439
449.126617	1002.566650	19753.970703	1925.034790	4.919462
449.483582	999.371582	19410.396484	1904.155884	4.914361
449.840515	1003.012390	19096.392578	1892.639038	4.916862
450.197388	999.297302	18893.546875	1868.862305	4.859466
450.554230	997.068298	18754.675781	1860.911743	4.864639
450.911041	990.009460	18682.083984	1835.648804	4.779764
451.267822	998.479980	18769.017578	1842.335938	4.748624
451.624573	997.959778	18792.570313	1837.208984	4.716311
451.981262	1002.343689	18766.416016	1851.400879	4.779632
452.337921	992.312744	18526.044922	1858.831177	4.942008
452.694580	992.015625	18199.113281	1838.249390	4.917934
453.051147	984.808289	17983.263672	1812.986328	4.872078
453.407715	983.619446	17599.416016	1779.698730	4.791099
453.764221	987.557434	17434.615234	1778.658569	4.809986
454.120728	993.278809	17016.363281	1758.596802	4.776346
454.477142	1009.773926	16953.130859	1752.949707	4.661351
454.833557	1007.247620	16806.904297	1747.525757	4.685407
455.189911	1009.996887	16877.343750	1750.646484	4.667759
455.546265	997.737000	16932.552734	1745.445313	4.692294
455.902557	1000.114563	17045.267578	1746.336914	4.650765
456.258820	1004.870056	17284.375000	1752.652710	4.593399
456.615051	1000.709045	17608.927734	1768.181763	4.621042
456.971252	995.136414	17973.529297	1790.249634	4.683089
457.327393	996.473816	18607.556641	1829.778809	4.731708
457.683502	1005.761658	19376.960938	1854.595825	4.620461
458.039612	1010.888489	20474.039063	1892.490234	4.529594
458.395630	1000.857605	21537.162109	1938.037720	4.563529
458.751648	1000.263184	22382.505859	1985.517212	4.607814
459.107605	993.650208	23141.431641	2022.445679	4.645140
459.463562	998.851501	23366.869141	2030.247559	4.611030
459.819458	998.257080	23265.000000	2024.600586	4.609312
460.175323	1011.111511	22591.742188	1999.783569	4.581294
460.531158	1007.544922	21769.507813	1961.591919	4.595168
460.886932	1004.052673	20921.492188	1925.629272	4.626983
461.242676	991.198242	20095.023438	1883.648315	4.671578
461.598419	990.678162	19483.884766	1857.493652	4.687210
461.954102	993.575989	18897.337891	1838.397949	4.718684
462.309723	1006.653320	18460.884766	1811.797485	4.612888
462.665344	1012.597473	18077.109375	1788.689453	4.547988
463.020905	1010.442688	17883.775391	1772.862915	4.518492
463.376373	1003.606750	17839.341797	1771.451172	4.560802
463.731873	994.021790	17855.687500	1773.383179	4.622090
464.087341	996.028015	17889.494141	1768.107544	4.570285
464.442749	1005.092957	18000.650391	1777.098145	4.542394
464.798126	1013.117493	18118.347656	1779.475952	4.480258
465.153503	1013.043274	18348.166016	1791.290039	4.489422
465.508820	1004.572754	18530.726563	1790.398438	4.483731
465.864105	997.885559	18660.013672	1796.119629	4.519467
466.219330	993.947449	18874.005859	1801.320801	4.515496
466.574524	992.015564	18912.123047	1810.682983	4.568429
466.929657	992.164124	18771.021484	1808.602539	4.592187
467.284790	994.764832	18550.935547	1798.942993	4.580601
467.639893	995.359314	18261.673828	1787.797729	4.589505
467.994934	1001.006165	18093.529297	1776.949585	4.539666
468.349945	1004.869934	17846.843750	1767.884399	4.530434
468.704926	1007.842102	17691.847656	1755.550293	4.481587
469.059875	1005.835938	17541.386719	1755.253052	4.532157
469.414764	1002.046570	17462.998047	1744.999390	4.513426
469.769653	999.223083	17476.296875	1735.414185	4.467972
470.124451	996.548157	17556.322266	1720.925171	4.374317
470.479248	991.569824	17592.210938	1730.213013	4.449486
470.834015	986.145691	17655.439453	1728.281250	4.452112
471.188721	986.962952	17883.400391	1742.993164	4.474495
471.543365	991.495422	18202.083984	1749.977661	4.407068
471.898010	993.947510	18496.548828	1777.469727	4.476604
472.252625	997.959900	18819.763672	1783.339478	4.406847
472.607178	997.365417	19083.761719	1788.986694	4.376888
472.961700	999.445984	19167.945313	1796.119629	4.384917
473.316193	993.947449	19198.560547	1812.763550	4.497849
473.670654	991.644104	19138.150391	1817.370239	4.550331
474.025055	991.569824	19259.263672	1812.020508	4.491266
474.379456	991.272644	19314.841797	1804.887329	4.440263
474.733795	995.953796	19466.271484	1824.726196	4.487050
475.088104	995.953674	19765.712891	1841.815796	4.506516
475.442383	996.622375	20144.062500	1859.276978	4.505326
475.796570	994.690430	20502.720703	1856.007690	4.415193
476.150787	1003.309631	20961.392578	1872.279907	4.353977
476.504944	1005.167297	21383.357422	1892.639038	4.355008
476.859070	1004.052734	21791.798828	1912.477905	4.370003
477.213135	996.993896	22040.564453	1922.285767	4.397029
477.567200	1001.972229	22356.947266	1927.264038	4.332910
477.921173	1006.133118	22702.306641	1935.882935	4.285317
478.275146	1005.761536	22965.708984	1948.143066	4.291365
478.629089	1002.938049	23188.021484	1963.820923	4.331212
478.983002	994.764832	23608.576172	1994.062134	4.418969
479.336823	994.244690	24254.710938	2022.297241	4.419742
479.690643	994.913391	25087.568359	2056.327881	4.405552
480.044403	1005.835938	26106.630859	2080.402100	4.281004
480.398163	1011.037109	27463.697266	2131.745117	4.236655
480.751862	1002.566650	29313.537109	2196.685303	4.217865
481.105499	997.439758	31771.101563	2297.959961	4.226082
481.459137	990.232422	35260.433594	2442.776123	4.238503
481.812744	996.548096	39916.242188	2652.012695	4.253540
482.166290	1004.349854	45425.191406	2894.908203	4.256017
482.519806	1000.114685	50582.324219	3145.159424	4.326239
482.873291	1004.275574	54573.714844	3382.705811	4.439901
483.226715	1003.904114	56886.906250	3568.908203	4.589954
483.580139	1010.071228	57696.800781	3650.715576	4.658311
483.933502	1012.151672	57114.718750	3614.975830	4.639403
484.286804	1009.402527	55359.839844	3494.382813	4.572144
484.640106	1017.501465	52684.421875	3326.978760	4.469934
484.993347	1017.427185	49821.683594	3147.017578	4.363534
485.346558	1013.637695	47547.718750	3018.028076	4.307360
485.699738	1004.498474	46526.578125	2968.616455	4.314649
486.052887	1002.195129	46756.250000	2988.009766	4.340194
486.405975	1000.486145	47804.437500	3032.962646	4.342532
486.759064	999.520203	49102.136719	3076.949951	4.318746
487.112061	996.102234	49816.261719	3095.005615	4.299255
487.464996	994.541809	49558.425781	3087.278076	4.309244
487.817963	1001.006287	48222.468750	3041.804688	4.321760
488.170868	998.034180	46141.097656	2968.170654	4.364206
488.523743	997.588379	43828.722656	2858.871338	4.345631
488.876587	992.610046	41744.011719	2751.207031	4.315427
489.229401	997.662598	40493.644531	2682.179443	4.265034
489.582153	1004.572754	40268.878906	2675.120850	4.254623
489.934845	1005.761536	40960.566406	2705.362061	4.253808
490.287537	1003.681152	42320.453125	2769.634033	4.274179
490.640198	1001.526367	43748.699219	2825.880859	4.267778
490.992798	999.743164	44558.078125	2868.679443	4.290651
491.345337	992.907227	44327.957031	2863.255127	4.316016
491.697876	991.272522	42825.785156	2806.785156	4.339749
492.050354	997.662598	40557.843750	2717.176270	4.346577
492.402832	1003.160950	37606.613281	2586.774902	4.326406
492.755219	1006.430359	34649.886719	2464.546875	4.334027
493.107605	1001.972168	31968.523438	2345.662598	4.339167
493.459930	1004.572754	29900.306641	2257.019531	4.334366
493.812225	1003.012390	28485.953125	2189.998291	4.318991
494.164490	1000.857666	27660.748047	2148.909180	4.306287
494.516724	1001.674988	27290.498047	2136.872070	4.318174
494.868896	1000.857666	27319.103516	2136.797607	4.316169
495.221039	1003.829773	27581.392578	2143.559326	4.288315
495.573120	997.439758	27910.554688	2149.875000	4.282058
495.925201	1001.006287	28220.990234	2164.809814	4.275548
496.277222	1000.114685	28352.431641	2179.075928	4.310279
496.629211	1000.634766	28358.748047	2178.555664	4.305563
496.981140	996.622375	28144.310547	2169.713623	4.321146
497.333069	1000.040283	27886.181641	2156.785156	4.302383
497.684967	1007.990723	27440.740234	2147.348633	4.310402
498.036804	1007.099121	26913.187500	2122.531494	4.305676
498.388580	1002.715332	26374.123047	2097.566162	4.315294
498.740326	998.851501	25907.056641	2076.092529	4.324844
499.092072	996.993896	25396.818359	2049.120361	4.312025
499.443756	1003.458252	24915.781250	2026.903931	4.279993
499.795410	1010.294128	24517.220703	2003.870117	4.226737
500.147003	1011.111511	24204.482422	1994.805298	4.241271
500.498566	1003.384033	23903.556641	1991.610229	4.315366
500.850098	996.993958	23650.779297	1977.492554	4.328189
501.201599	997.513977	23514.953125	1973.257324	4.333279
501.553009	999.074402	23447.486328	1960.774780	4.284046
501.904449	1001.972168	23443.548828	1966.570313	4.298264
502.255859	1003.755554	23518.966797	1970.953979	4.295755
502.607178	1002.863831	23646.396484	1972.811401	4.283552
502.958405	997.811279	23748.265625	1980.390259	4.318942
503.309692	996.028015	23834.083984	1981.281860	4.314088
503.660919	993.204407	23830.369141	1987.597778	4.354277
504.012115	999.074402	23814.171875	1991.238647	4.348718
504.363251	1001.377686	23746.851563	1986.929077	4.332956
504.714294	1012.002991	23690.681641	1988.563599	4.306074
505.065369	1010.814148	23606.570313	1981.059082	4.293926
505.416443	1011.854431	23453.880859	1979.944336	4.313736
505.767395	1002.938171	23401.718750	1977.864136	4.352585
506.118317	1004.201233	23351.486328	1971.771362	4.329699
506.469238	1002.120789	23477.431641	1978.607056	4.344707
506.820160	1001.154846	23655.460938	1983.957031	4.338258
507.170929	995.879395	23917.376953	1999.709106	4.379425
507.521729	990.306641	24238.439453	2013.009399	4.399075
507.872498	994.913391	24518.189453	2027.869751	4.391210
508.223236	996.176575	24787.984375	2039.906860	4.386931
508.573883	999.148682	24953.455078	2043.398926	4.359343
508.924500	998.702881	25119.447266	2051.126709	4.363148
509.275116	992.387146	25352.906250	2054.990479	4.361989
509.625702	996.325195	25609.695313	2065.467041	4.343744
509.976196	992.387207	25834.537109	2065.318604	4.318995
510.326660	997.216797	26042.507813	2076.909912	4.310963
510.677124	998.628601	26246.990234	2083.745361	4.297771
511.027557	1002.120789	26411.943359	2107.076660	4.348538
511.377869	1003.829773	26603.421875	2116.587402	4.346778
511.728180	1001.823547	26672.078125	2130.853271	4.398202
512.078430	1004.052734	26695.927734	2130.110107	4.382932
512.428650	1002.492371	26519.976563	2115.398438	4.361347
512.778931	997.811218	26350.640625	2104.475830	4.365053
513.129028	990.752441	26153.146484	2097.045654	4.396614
513.479126	989.340759	26023.263672	2112.203369	4.485364
513.829285	991.272644	25889.593750	2113.020752	4.505316
514.179382	998.777161	25757.632813	2100.538086	4.449967
514.529297	1006.579041	25756.517578	2085.825928	4.360604
514.879272	1015.198059	25916.119141	2086.866211	4.303729
515.229187	1014.009216	26186.876953	2092.364502	4.283800
515.579163	1010.814209	26664.423828	2112.129150	4.293021
515.928955	1007.842102	27229.494141	2130.258789	4.280496
516.278748	1005.464355	27945.849609	2163.992188	4.300339
516.628540	1002.640930	28757.458984	2209.465576	4.348163
516.978333	998.479980	29734.537109	2268.164795	4.418438
517.327942	998.851379	30843.802734	2318.244873	4.420826
517.677612	1000.783386	31631.783203	2349.823486	4.404166
518.027222	1004.424133	32055.830078	2372.857422	4.406993
518.376831	1001.377747	32082.876953	2380.287842	4.436434
518.726379	992.461487	31820.585938	2372.486084	4.476512
519.075867	987.483154	31231.587891	2339.569824	4.470579
519.425293	998.108459	30395.306641	2314.901367	4.479315
519.774658	1006.801819	29546.773438	2283.991211	4.475091
520.124084	1009.699707	28882.210938	2252.635498	4.459361
520.473389	998.851563	28432.603516	2213.700928	4.428302
520.822693	997.737000	28119.937500	2191.632813	4.401913
521.171997	996.770996	27873.476563	2183.533936	4.415582
521.521240	1003.012390	27791.076172	2192.822021	4.441566
521.870361	1003.681152	27887.296875	2197.280029	4.439875
522.219482	999.668762	28190.078125	2193.267822	4.389780
522.568604	991.792786	28559.216797	2208.053955	4.411951
522.917664	989.935242	29078.296875	2239.038330	4.447048
523.266724	1004.201355	29817.234375	2278.047119	4.421075
523.615662	1010.071289	30865.349609	2310.666016	4.356331
523.964600	1006.504700	32202.796875	2353.464355	4.317692
524.313538	1001.749268	33648.359375	2415.284180	4.329806
524.662354	1001.229187	35122.605469	2486.391846	4.352587
525.011169	1007.767822	36436.199219	2557.796875	4.375100
525.359985	1000.486145	37754.921875	2638.637939	4.457018
525.708740	1004.424133	39222.996094	2702.761475	4.443749
526.057434	1008.808044	41003.433594	2776.023682	4.418633
526.406067	1019.061829	43313.656250	2866.004639	4.366853
526.754700	1019.953430	46267.707031	3020.851563	4.422094
527.103333	1017.427185	49664.167969	3199.103760	4.484733
527.451782	1004.052673	52911.417969	3394.520264	4.605257
527.800293	1000.560486	55315.031250	3560.958252	4.714025
528.148743	996.845276	56609.531250	3661.043701	4.790631
528.497131	992.684326	56629.890625	3671.743164	4.815229
528.845642	984.659668	55401.593750	3584.066162	4.776834
529.193909	980.424500	53049.097656	3451.732666	4.746248
529.542175	990.380920	49689.203125	3266.644775	4.674166
529.890503	1002.938171	45982.832031	3071.674561	4.599247
530.238770	1002.417969	42596.042969	2891.416016	4.541557
530.586914	996.473816	40296.296875	2765.250000	4.500723
530.934998	988.449036	39116.964844	2700.086670	4.489128
531.283142	994.764893	39167.343750	2698.154785	4.462339
531.631226	996.102356	40024.128906	2741.473389	4.472096
531.979248	991.792664	41508.324219	2804.927734	4.475050
532.327148	994.170410	42972.683594	2869.719482	4.467879
532.675110	997.291077	43947.531250	2915.490234	4.466097
533.023071	1001.674988	44111.375000	2937.707031	4.490943
533.370850	996.845398	43270.855469	2896.246094	4.493069
533.718689	994.170410	41851.527344	2835.391846	4.506463
534.066467	998.628601	39960.300781	2743.627930	4.478759
534.414246	1001.006165	38157.566406	2670.291260	4.492572
534.761963	1012.448914	36807.414063	2611.963623	4.468546
535.109619	1011.408691	36137.355469	2587.517822	4.487023
535.457153	1010.219788	35997.441406	2576.149658	4.475719
535.804749	1001.451965	36027.753906	2571.989014	4.483880
536.152344	1000.040222	35926.183594	2558.985840	4.463549
536.499817	996.845276	35516.031250	2550.292236	4.500242
536.847229	997.068176	34768.246094	2518.416260	4.504871
537.194641	998.777161	33734.769531	2475.766846	4.511822
537.542114	1001.897888	32719.125000	2432.225342	4.509623
537.889404	1007.396301	31872.599609	2401.464111	4.516633
538.236694	1010.665527	31479.757813	2397.897705	4.552916
538.583984	1006.058838	31754.158203	2407.556885	4.557999
538.931213	1000.263184	32746.099609	2450.429443	4.568052
539.278381	994.764832	34491.695313	2521.982910	4.559278
539.625488	1000.188904	36725.082031	2614.341309	4.518284
539.972595	998.851379	39442.113281	2732.259766	4.509005
540.319641	1001.823547	42087.734375	2833.831299	4.458969
540.666687	1003.160950	44186.562500	2914.524170	4.426153
541.013611	1008.659424	45344.941406	2959.106201	4.399211
541.360596	1006.281738	45350.292969	2971.737305	4.432291
541.707458	1001.897949	44453.683594	2948.629639	4.480211
542.054260	998.182800	42749.851563	2894.239990	4.541273
542.401062	993.650330	40843.093750	2818.153564	4.578491
542.747864	993.724609	38684.898438	2722.674561	4.587148
543.094666	996.548096	36637.039063	2618.056396	4.549624
543.441284	1003.161072	34611.769531	2522.131592	4.519588
543.787903	1016.461243	32996.945313	2454.516357	4.496665
544.134460	1009.476807	31625.837891	2394.033936	4.522278
544.481079	1009.699707	30724.845703	2354.802002	4.526656
544.827637	998.925781	30072.248047	2327.755859	4.570617
545.174072	1001.006165	29739.443359	2304.944580	4.537263
545.520508	1004.052673	29649.312500	2295.211182	4.507407
545.866943	1004.349854	29594.697266	2280.647705	4.464087
546.213318	1014.752258	29590.759766	2287.409424	4.453587
546.559631	1014.083557	29270.515625	2276.115234	4.466352
546.905823	1010.888611	28763.845703	2261.700439	4.506949
547.252136	999.297302	27873.625000	2224.920654	4.560573
547.598389	990.083740	26852.037109	2185.317383	4.621591
547.944458	994.764832	25711.865234	2136.648926	4.619814
548.290588	1002.492371	24631.724609	2094.147949	4.619936
548.636658	1010.368347	23715.048828	2048.526123	4.572439
548.982727	1013.637695	22948.095703	2013.975220	4.560576
549.328735	1009.922546	22421.218750	1977.641235	4.519664
549.674622	1012.746094	21942.259766	1957.282349	4.512939
550.020569	1008.287903	21691.787109	1951.412476	4.559792
550.366455	1007.767761	21475.642578	1954.013062	4.623075
550.712280	1006.504578	21480.619141	1952.601196	4.620940
551.058044	1008.139343	21589.623047	1953.046997	4.591057
551.403748	1008.436523	21779.392578	1951.115234	4.538446
551.749512	1004.201355	21980.900391	1963.598022	4.573630
552.095154	1000.263184	22088.861328	1963.895142	4.569446
552.440735	996.993958	22156.251953	1967.387329	4.586141
552.786316	990.901062	22113.156250	1962.706421	4.600860
553.131897	994.393311	21938.546875	1944.947876	4.538520
553.477417	1001.823547	21614.662109	1938.632202	4.544783
553.822815	1004.424133	21135.185547	1921.022461	4.553222
554.168213	1000.114563	20704.898438	1915.152710	4.643736
554.513672	1005.687317	20337.621094	1895.982422	4.605308
554.859009	1012.300293	20074.439453	1878.447144	4.543808
555.204285	1014.826599	19847.669922	1861.728882	4.496943
555.549500	994.690613	19639.841797	1845.307983	4.562137
555.894714	989.415039	19535.001953	1833.196777	4.549771
556.239990	989.935059	19476.154297	1833.345337	4.562373
556.585022	1001.897766	19377.109375	1820.713867	4.456091
556.930115	998.554260	19207.996094	1816.255737	4.490536
557.275146	999.074402	18997.943359	1810.014282	4.505505
557.620178	998.925781	18884.556641	1819.450806	4.587621
557.965149	1004.795715	18811.591797	1823.240234	4.596248
558.310059	1003.458313	18784.841797	1819.376343	4.588608
558.654968	1002.789551	18710.835938	1824.429077	4.639922
558.999756	1000.263245	18726.365234	1814.621094	4.594117
559.344604	1003.829834	18770.056641	1810.088501	4.538154
559.689331	1007.247742	18838.414063	1801.543823	4.454538
560.033997	1007.247742	18834.253906	1812.540649	4.517264
560.378723	1004.944336	18923.640625	1821.828491	4.558837
560.723389	1004.795715	19017.857422	1829.927368	4.580740
561.067932	1007.916321	19142.091797	1824.503418	4.503028
561.412476	1008.808044	19053.001953	1831.116211	4.557190
561.757019	1006.207520	18971.119141	1824.577637	4.555380
562.101501	1007.470642	18864.048828	1828.589844	4.598413
562.445862	998.554260	18792.197266	1812.614868	4.575008
562.790222	993.650208	18732.904297	1807.562134	4.588197
563.134644	988.449036	18713.957031	1802.286743	4.591336
563.478943	994.616211	18799.255859	1811.425903	4.587623
563.823181	998.405579	18989.099609	1806.670532	4.492684
564.167358	1003.606934	19249.306641	1815.735352	4.451067
564.511536	1003.978333	19630.703125	1827.921265	4.423445
564.855774	1002.195129	20043.826172	1854.818726	4.477682
565.199768	999.074402	20481.841797	1870.645142	4.473547
565.543823	1000.188965	20855.064453	1881.196289	4.437234
565.887817	1002.417969	21101.007813	1898.583008	4.458845
566.231812	995.210632	21075.595703	1904.898926	4.530233
566.575745	993.575989	20850.681641	1900.737915	4.568450
566.919617	989.043457	20561.419922	1882.236450	4.563539
567.263428	1000.709045	20200.978516	1855.859009	4.453844
567.607239	999.668762	19873.525391	1836.540405	4.434025
567.950989	993.575989	19573.863281	1828.812866	4.495285
568.294678	984.139465	19465.900391	1834.534180	4.601264
568.638367	984.585388	19444.427734	1846.348267	4.668311
568.981995	989.266418	19439.298828	1844.565063	4.635756
569.325623	997.216797	19560.490234	1835.574341	4.516216
569.669128	997.662598	19694.603516	1835.500000	4.481147
570.012573	998.479919	19964.396484	1841.592896	4.445411
570.356140	994.467529	20229.435547	1865.741211	4.529634
570.699524	990.232361	20523.302734	1876.143677	4.535443
571.042908	998.628601	20872.599609	1890.409790	4.487182
571.386230	999.222961	21109.998047	1890.409790	4.431390
571.729492	1003.532532	21284.757813	1890.855591	4.375096
572.072815	1001.377747	21254.294922	1885.728638	4.366536
572.416016	998.851379	21119.285156	1890.558472	4.431849
572.759094	999.520203	20898.904297	1880.973267	4.429549
573.102234	996.919617	20669.382813	1870.348145	4.439854
573.445374	997.811279	20504.876953	1867.078735	4.456167
573.788391	995.136414	20413.412109	1878.224243	4.547715
574.131409	995.953674	20338.513672	1877.332520	4.556681
574.474365	1001.229187	20247.937500	1861.580444	4.470121
574.817261	1007.842102	20071.617188	1841.221313	4.371533
575.160156	1006.801941	19815.345703	1831.413452	4.384239
575.502930	1007.024902	19497.033203	1820.713867	4.400696
575.845703	1005.018555	19173.222656	1810.162720	4.431612
576.188477	1003.309631	18822.884766	1799.834595	4.469944
576.531250	997.142578	18457.169922	1782.447876	4.497732
576.873901	997.588379	18036.167969	1761.791870	4.485136
577.216431	1001.006287	17645.855469	1741.655762	4.449722
577.559082	1001.303528	17222.330078	1729.395874	4.488571
577.901611	994.690491	16914.865234	1710.522827	4.496385
578.244080	995.582092	16599.970703	1691.724243	4.461195
578.586487	1005.613037	16386.498047	1679.092896	4.378681
578.928955	1022.777039	16153.262695	1696.702637	4.454091
579.271301	1020.473633	15951.976563	1691.575684	4.494538
579.613647	1006.133240	15749.948242	1677.606812	4.554273
579.955872	982.282043	15592.500000	1646.102539	4.543536
580.298157	985.105469	15486.469727	1632.059204	4.461330
580.640320	990.975403	15401.988281	1628.641235	4.424851
580.982483	1002.418152	15321.815430	1627.452515	4.364949
581.324524	999.668762	15227.078125	1632.430786	4.447486
581.666626	1003.829773	15163.699219	1624.926147	4.386314
582.008728	1006.430359	15108.937500	1616.752930	4.327759
582.350647	1006.950500	15052.245117	1613.260742	4.316821
582.692566	1004.721436	14957.286133	1615.935547	4.380658
583.034424	999.668762	14851.627930	1604.715820	4.367953
583.376343	998.182800	14753.918945	1595.279297	4.340709
583.718201	994.541931	14687.046875	1596.468262	4.396028
584.059937	994.913391	14641.203125	1597.359863	4.414727
584.401611	991.421204	14600.782227	1601.743774	4.484579
584.743347	997.811279	14590.156250	1596.839844	4.407103
585.085022	1001.154968	14532.276367	1602.189575	4.441868
585.426514	1002.938171	14530.343750	1600.554810	4.417821
585.768127	1005.390137	14549.364258	1601.149292	4.398703
586.109619	999.445862	14604.645508	1589.855347	4.339587
586.451172	994.393311	14647.890625	1584.579712	4.322602
586.792542	990.306702	14688.383789	1583.911133	4.333488
587.133850	996.399414	14735.120117	1603.601440	4.419640
587.475220	1009.625305	14813.733398	1606.573364	4.324423
587.816589	1007.544861	14893.386719	1602.338257	4.283452
588.157776	1001.749207	15023.416992	1593.198853	4.218112
588.498962	1005.390076	15097.347656	1588.666504	4.139073
588.840210	1007.842102	15123.725586	1593.347534	4.147848
589.181335	1008.882324	15132.864258	1598.251465	4.172825
589.522400	1005.092957	15111.761719	1604.864624	4.251689
589.863403	1003.458252	15105.000000	1603.973022	4.258504
590.204407	1000.857605	15017.916992	1591.712891	4.215259
590.545410	997.959778	14996.592773	1595.576660	4.269109
590.886353	996.548096	14885.733398	1587.626343	4.255672
591.227112	995.062073	14806.750000	1592.604492	4.326354
591.567932	996.771057	14664.458008	1589.929688	4.339861
591.908752	1001.675049	14578.565430	1593.793457	4.361222
592.249512	1007.544922	14553.674805	1589.558105	4.296527
592.590149	1002.640869	14580.944336	1578.412720	4.240381
592.930786	1002.640869	14685.487305	1580.641968	4.224275
593.271423	1002.789490	14797.015625	1588.072144	4.242954
593.612000	1003.383972	14986.635742	1596.319702	4.240328
593.952576	1000.708984	15178.484375	1600.629272	4.231413
594.292969	996.919617	15395.968750	1601.446655	4.198382
594.633484	994.021790	15588.116211	1612.369141	4.236969
594.973877	986.888733	15874.254883	1616.084106	4.226371
595.314209	994.764832	16231.206055	1630.573242	4.172945
595.654480	997.959778	16652.130859	1641.124146	4.108582
595.994812	997.365417	17033.080078	1654.647339	4.098863
596.335022	992.907227	17308.521484	1668.987671	4.143764
596.675171	992.090027	17333.857422	1672.331421	4.162594
597.015320	999.594482	17181.687500	1668.096191	4.131120
597.355408	1000.783386	16772.873047	1654.870239	4.147116
597.695496	997.885559	16274.895508	1637.557739	4.187156
598.035461	1001.154846	15663.756836	1620.319458	4.222747
598.375366	999.891785	15124.245117	1601.000610	4.255833
598.715271	1004.944336	14669.289063	1580.047241	4.208785
599.055176	1001.229187	14270.952148	1561.471680	4.221961
599.395081	1003.829773	13998.112305	1541.038574	4.134194
599.734802	998.034180	13790.065430	1538.660767	4.226276
600.074524	1001.749207	13736.715820	1536.505981	4.199122
600.414246	1010.145508	13708.035156	1532.642212	4.114831
600.753906	1020.250671	13790.065430	1527.143921	3.969465
601.093506	1012.894714	13863.475586	1523.651733	3.974583
601.433044	1008.065125	14057.628906	1532.196411	4.016466
601.772583	998.925781	14322.518555	1541.112793	4.069376
602.112122	1000.337585	14687.492188	1554.933105	4.051942
602.451538	995.805115	15109.831055	1575.737671	4.108910
602.790894	1002.269348	15506.382813	1591.044067	4.059364
603.130310	1006.950500	15996.632813	1615.415405	4.059225
603.469604	1005.835938	16450.474609	1619.650757	3.974291
603.808838	1007.990723	16872.289063	1632.727905	3.938007
604.148010	1008.659363	17100.919922	1634.511230	3.889148
604.487305	1008.807922	17144.537109	1640.901367	3.917353
604.826416	1005.464417	16974.904297	1635.031372	3.942323
605.165527	997.736877	16647.154297	1607.167969	3.894274
605.504456	999.520203	16199.182617	1587.180542	3.866272
605.843445	993.798889	15680.028320	1575.960815	3.963999
606.182434	995.805115	15141.781250	1570.536621	4.062862
606.521423	994.839111	14669.140625	1553.149780	4.082919
606.860229	1003.012390	14300.672852	1531.304688	3.972821
607.199036	1007.767822	14113.653320	1523.354492	3.934009
607.537903	1004.498535	14068.476563	1524.989136	3.984166
607.876648	1009.922668	14192.338867	1525.806274	3.913422
608.215271	1008.585205	14426.168945	1524.394653	3.844280
608.553955	1008.362305	14703.096680	1531.973267	3.823447
608.892578	998.182800	14943.913086	1544.753540	3.919269
609.231140	1005.910156	15004.914063	1552.852539	3.907009
609.569641	1003.235352	14948.815430	1551.589478	3.932100
609.908081	999.222961	14772.421875	1542.598755	3.945168
610.246521	990.975403	14516.374023	1537.472046	4.040522
610.584961	997.662659	14137.875977	1523.279907	4.000066
610.923340	998.777161	13739.166992	1506.562012	3.985631
611.261597	997.216797	13341.722656	1490.586914	3.996678
611.599854	997.513977	13023.707031	1470.376587	3.931939
611.938110	1004.721375	12727.461914	1459.676880	3.880965
612.276245	997.588318	12489.989258	1448.828735	3.926424
612.614319	999.222961	12255.862305	1453.955566	4.039683
612.952393	996.770996	12049.151367	1442.215820	4.030306
613.290466	1012.968994	11899.803711	1434.339722	3.870461
613.628479	1010.517029	11775.124023	1417.473022	3.780500
613.966370	1013.860596	11704.833008	1419.776367	3.796809
614.304260	1002.566650	11596.500000	1421.559570	3.955027
614.642151	996.696777	11554.518555	1422.451172	4.032597
614.979980	989.563660	11503.918945	1418.364624	4.078243
615.317749	989.340759	11503.324219	1416.358398	4.061426
615.655396	996.770996	11436.453125	1410.562866	3.963645
615.993164	996.250793	11423.894531	1405.584595	3.925468
616.330811	996.622375	11416.018555	1399.863281	3.870099
616.668396	995.359192	11442.247070	1400.234741	3.875561
617.005859	992.461426	11451.683594	1395.925171	3.857493
617.343445	990.826721	11463.645508	1399.045898	3.897892
617.680908	985.105469	11490.915039	1408.333862	4.028518
618.018311	988.449158	11470.928711	1417.547241	4.093479
618.355652	993.575989	11480.735352	1410.117065	3.971915
618.692993	997.514099	11424.340820	1399.937622	3.859501
619.030273	998.777161	11399.746094	1401.720703	3.874096
619.367554	1001.452148	11302.707031	1411.083008	3.976514
619.704712	1003.458313	11247.872070	1411.603027	3.984071
620.041870	1010.517090	11170.522461	1403.801270	3.870905
620.379028	1008.139343	11125.643555	1396.742554	3.840900
620.716064	1008.585144	11110.485352	1391.912720	3.794609
621.053040	998.479980	11097.333008	1386.042969	3.837693
621.389954	1000.263184	11054.239258	1382.327759	3.800134
621.726929	1004.424133	11012.480469	1384.705566	3.799753
622.063843	1004.349854	11008.319336	1386.191528	3.816901
622.400635	1004.126953	11033.210938	1383.368164	3.781414
622.737427	1001.080505	11063.750000	1377.795410	3.743687
623.074219	1000.188904	11058.250977	1380.321655	3.779383
623.410889	1001.451965	11084.331055	1383.739624	3.791453
623.747559	995.730713	11137.532227	1392.655884	3.913754
624.084167	1011.037109	11246.906250	1401.275024	3.812455
624.420715	1011.928711	11404.129883	1402.240845	3.755818
624.757324	1018.838867	11568.562500	1401.497925	3.627195
625.093750	1007.396301	11760.190430	1399.937500	3.650597
625.430176	1009.105286	11951.816406	1405.435913	3.621869
625.766602	1003.829773	12142.476563	1418.141602	3.719589
626.102905	1007.619202	12341.309570	1428.469727	3.713270
626.439209	1000.931946	12461.458008	1435.231445	3.789525
626.775452	1001.972168	12517.184570	1432.407837	3.737974
627.111694	1003.161072	12476.168945	1422.079712	3.651341
627.447876	998.777161	12382.250977	1432.259155	3.807994
627.783997	1002.269348	12258.463867	1426.760742	3.771180
628.120056	995.953674	12123.678711	1428.544067	3.887501
628.456055	1005.835938	11917.264648	1409.819702	3.702391
628.792053	1003.161072	11670.579102	1399.937500	3.719517
629.128052	1013.563416	11461.194336	1389.237915	3.595787
629.463928	1016.089661	11336.960938	1392.284302	3.644989
629.799744	1019.804871	11257.679688	1388.717773	3.603413
630.135559	1011.928772	11133.222656	1383.293579	3.669144
630.471375	1008.362122	10983.651367	1364.049316	3.565683
630.807068	1001.600647	10884.458008	1356.693481	3.593018
631.142700	1004.721375	10814.834961	1354.761597	3.568157
631.478333	997.885559	10780.878906	1360.111450	3.702608
631.813965	998.257019	10744.024414	1365.758301	3.770881
632.149475	998.108398	10700.112305	1361.820313	3.748833
632.484924	997.291077	10728.049805	1356.098999	3.687358
632.820435	1001.303406	10734.588867	1360.334106	3.688690
633.155884	996.250916	10796.706055	1365.163940	3.764244
633.491150	1008.064941	10816.172852	1362.786133	3.616612
633.826477	1005.761536	10812.680664	1354.687134	3.557953
634.161804	1009.105225	10761.932617	1347.851318	3.473312
634.497009	1002.418030	10664.521484	1349.486084	3.592055
634.832153	1008.808105	10556.113281	1342.055786	3.490490
635.167297	1010.888489	10446.293945	1350.897827	3.603548
635.502380	1009.031006	10327.187500	1350.080322	3.660052
635.837463	1002.269348	10206.148438	1354.018433	3.821748
636.172424	997.068176	10082.954102	1340.866821	3.783876
636.507324	997.885559	9987.251953	1335.962891	3.760858
636.842224	1004.126953	9918.595703	1329.572876	3.650761
637.177124	1000.188904	9833.667969	1332.396362	3.760777
637.511963	1001.526367	9745.768555	1326.303589	3.714184
637.846741	999.297363	9645.607422	1323.331421	3.747657
638.181396	1001.006348	9544.258789	1314.340820	3.667625
638.516113	998.628601	9460.816406	1308.470825	3.661491
638.850769	993.204529	9395.504883	1305.573120	3.717655
639.185303	1003.086670	9357.535156	1302.006592	3.577973
639.519836	1001.303467	9312.433594	1301.114990	3.607350
639.854370	1000.486145	9263.170898	1291.678589	3.524187
640.188843	998.777161	9177.723633	1289.226563	3.551184
640.523254	1000.114563	9111.297852	1296.136597	3.649554
640.857605	1006.801941	9040.189453	1310.997192	3.786637
641.191895	1000.560486	8975.174805	1308.396606	3.860201
641.526184	999.371582	8934.010742	1297.622681	3.758849
641.860413	994.987793	8888.983398	1284.916870	3.672780
642.194580	998.851563	8854.729492	1285.585693	3.649931
642.528748	1005.092957	8779.164063	1282.613647	3.569824
642.862793	1008.808044	8733.244141	1275.257446	3.449435
643.196838	1004.647156	8725.219727	1270.204956	3.439613
643.530823	1005.984558	8732.725586	1275.851929	3.492641
643.864746	1004.201233	8729.157227	1288.706299	3.682935
644.198669	1006.950439	8715.783203	1288.780640	3.655939
644.532532	1004.647156	8706.272461	1286.477417	3.659361
644.866333	1001.972168	8703.226563	1279.641479	3.605508
645.200073	1000.337463	8676.774414	1284.842651	3.706214
645.533813	1001.080566	8679.523438	1280.533203	3.639444
645.867554	1002.418030	8685.096680	1279.121460	3.601653
646.201172	1002.863953	8719.647461	1272.805664	3.498112
646.534729	1002.492371	8749.813477	1280.384399	3.586943
646.868225	1003.086731	8761.850586	1282.836426	3.605596
647.201782	1001.823669	8764.228516	1289.746704	3.709199
647.535217	998.108398	8746.692383	1288.037720	3.741707
647.868591	1006.727539	8749.442383	1286.031616	3.607315
648.201965	1012.968933	8751.151367	1288.483521	3.560456
648.535278	1009.996887	8745.579102	1283.951050	3.541481
648.868591	1000.560486	8745.430664	1288.260620	3.714719
649.201782	994.913513	8704.936523	1277.783936	3.668866
649.534912	1005.687317	8659.610352	1279.121460	3.572471
649.868103	999.966125	8609.531250	1273.920166	3.600127
650.201172	1007.693542	8617.704102	1281.647705	3.599918
650.534180	999.445984	8642.075195	1289.300781	3.792606
650.867188	1002.417969	8630.855469	1296.433838	3.854208
651.200134	993.501648	8609.010742	1288.483398	3.873434
651.533020	992.758606	8575.352539	1283.430786	3.833414
651.865845	999.743164	8557.593750	1282.019165	3.734871
652.198608	1004.572815	8541.617188	1289.300781	3.777714
652.531433	1006.950500	8506.324219	1289.746704	3.770931
652.864136	1003.755554	8494.288086	1286.328735	3.772404
653.196777	1081.847656	8584.639648	1413.386353	4.418871
653.529358	1086.677246	8564.502930	1420.816528	4.468401
653.861938	1084.373901	8504.391602	1418.884766	4.508222
654.194519	1009.031006	8310.983398	1285.957153	3.792495
654.526978	1003.829773	8264.394531	1272.211060	3.696424
654.859375	998.851501	8211.862305	1276.074951	3.843380
655.191833	995.804993	8195.070313	1278.155518	3.921935
655.524170	994.616211	8190.982910	1279.195679	3.954488
655.856445	1003.309570	8192.915039	1269.833618	3.707075
656.188660	1010.516907	8212.160156	1272.062622	3.631751
656.520874	1012.374512	8240.692383	1270.799438	3.575174
656.853088	1010.442688	8338.772461	1275.480469	3.616619
657.185181	995.804993	8409.507813	1278.080933	3.807489
657.517212	991.421204	8511.748047	1287.071655	3.931351
657.849243	989.860840	8681.677734	1288.260620	3.879445
658.181274	999.371643	8925.540039	1298.737305	3.776928
658.513123	1000.560547	9188.422852	1299.257446	3.648045
658.844971	1006.950500	9390.601563	1313.226318	3.653251
659.176819	1007.396301	9540.916016	1311.814575	3.567324
659.508667	1007.470642	9624.431641	1325.114746	3.686266
659.840393	999.743103	9585.497070	1318.799072	3.716109
660.172058	994.096130	9492.543945	1316.792847	3.797125
660.503662	999.742981	9290.885742	1312.631958	3.773774
660.835266	1009.030945	9107.803711	1316.495605	3.796435
661.166931	1007.544922	8848.636719	1304.904419	3.792323
661.498413	1004.052673	8633.976563	1299.777466	3.875855
661.829773	1002.863831	8419.241211	1293.684692	3.921333
662.161194	1009.328125	8251.985352	1294.799194	3.941524
662.492615	1007.544922	8097.287598	1286.328735	3.932214
662.823975	1005.241516	7950.242676	1278.378296	3.932854
663.155212	1005.835938	7826.528809	1275.406250	3.952242
663.486450	1007.544922	7731.197754	1262.328857	3.789368
663.817627	1007.322021	7672.869629	1255.715942	3.726534
664.148743	1004.201355	7605.180176	1246.873901	3.676311
664.479858	1001.229248	7539.497559	1247.096924	3.760440
664.810913	1002.566589	7493.058105	1241.895630	3.687379
665.141907	1002.046448	7451.745605	1247.542603	3.806319
665.472778	1006.058838	7410.062012	1251.555054	3.833481
665.803711	1008.733704	7401.145996	1251.406372	3.796261
666.134583	1010.071106	7415.634766	1249.623169	3.739750
666.465454	1009.625305	7436.736328	1253.338257	3.791952
666.796143	1002.789551	7406.420410	1260.991333	4.032115
667.126831	997.811279	7376.029785	1258.911011	4.093615
667.457458	1006.801941	7362.507813	1252.892456	3.871962
667.788147	1005.761658	7348.242188	1251.629395	3.876523
668.118774	1012.374512	7370.310059	1257.870728	3.861257
668.449219	998.702881	7370.012207	1267.381470	4.217007
668.779663	999.371643	7398.247559	1267.158569	4.184906
669.110107	997.216797	7410.433105	1262.403198	4.134998
669.440552	1003.235352	7446.470215	1253.561157	3.885095
669.770874	1002.046570	7408.649902	1256.384766	3.969938
670.101135	1001.600769	7372.315918	1258.019531	4.024961
670.431396	996.548157	7306.780762	1253.561279	4.072958
670.761597	996.696716	7269.258301	1250.217651	4.041745
671.091797	992.610046	7201.643066	1243.158813	4.035230
671.421875	996.176575	7127.562500	1246.056641	4.075426
671.751892	994.913391	7092.269043	1250.291870	4.188348
672.081909	999.891785	7067.451172	1250.663330	4.132988
672.411865	1001.526367	7048.876465	1254.898804	4.189809
672.741821	1003.235352	7007.712402	1245.982300	4.042766
673.071716	1003.829773	6973.682129	1244.347656	4.028875
673.401550	1007.099121	6903.169434	1240.261108	3.954532
673.731262	1005.835938	6884.964844	1247.839966	4.116324
674.060974	1007.619141	6867.503906	1242.638672	4.010651
674.390625	1005.092834	6880.506348	1237.883301	3.962112
674.720276	1011.780090	6853.163574	1227.480957	3.692633
675.049927	1002.863831	6820.395996	1239.740967	4.071780
675.379395	1000.188965	6798.698730	1246.948364	4.255566
675.708923	994.393311	6764.296875	1245.759399	4.356504
676.038330	997.959778	6750.699219	1241.747070	4.237760
676.367737	995.730774	6742.600098	1234.836914	4.160633
676.697083	999.297302	6764.371582	1237.883301	4.138472
677.026428	998.405701	6770.316406	1238.180542	4.154168
677.355652	1002.120850	6798.030762	1241.672729	4.133119
677.684875	998.777161	6837.931152	1252.446655	4.344285
678.013977	991.569824	6885.781738	1262.923340	4.603728
678.343079	989.489319	6943.292480	1268.570313	4.687441
678.672180	990.455261	7004.517578	1269.759155	4.644180
679.001221	997.068176	7118.126465	1268.793335	4.439186
679.330139	997.439697	7229.506348	1273.548706	4.430457
679.659058	997.514099	7321.938965	1278.304077	4.439771
679.987976	997.811279	7404.860840	1288.854980	4.542554
680.316772	1003.161072	7451.894531	1288.111938	4.418711
680.645630	1005.835938	7488.228516	1297.845581	4.504658
680.974304	1008.585144	7448.773438	1285.065552	4.293048
681.302979	1004.869934	7392.154785	1288.483521	4.440284
681.631653	1005.613037	7307.152344	1273.548584	4.251906
681.960266	1007.767761	7224.825684	1276.074829	4.315660
682.288757	1005.315735	7151.117188	1272.731323	4.351192
682.617249	1008.585144	7061.359375	1271.542480	4.344410
682.945679	1001.377747	6977.174316	1270.873657	4.509791
683.274109	1005.835938	6872.778809	1270.279297	4.507345
683.602478	1001.452087	6764.222168	1260.174194	4.489544
683.930725	1008.733704	6650.984863	1258.688110	4.430048
684.259033	1008.659485	6546.367188	1254.304321	4.435858
684.587280	1010.071228	6471.023926	1260.917114	4.593446
684.915344	1005.390137	6394.046387	1253.041016	4.595782
685.243469	999.891663	6341.514160	1256.607544	4.805953
685.571533	998.182800	6289.873535	1253.932739	4.833047
685.899536	1002.492371	6265.279297	1258.167969	4.858179
686.227539	1006.356140	6241.800293	1252.743896	4.706148
686.555420	1003.904114	6259.855469	1261.734497	4.905494
686.883301	998.405762	6304.808594	1263.220459	4.990475
687.211121	997.216797	6341.068359	1258.762329	4.894326
687.538940	1007.544922	6360.684082	1254.229858	4.608230
687.866638	1011.260010	6361.056152	1251.034912	4.481945
688.194336	1007.767822	6353.328613	1254.973022	4.624496
688.521973	997.588379	6329.625488	1255.270142	4.832707
688.849609	994.096130	6270.406738	1245.685059	4.768274
689.177063	999.222961	6181.986816	1244.719238	4.736783
689.504578	994.393311	6090.966309	1245.016357	4.917481
689.832031	997.216797	6019.041016	1251.703735	5.067619
690.159485	993.353027	5974.756348	1257.796509	5.308614
690.486816	999.594543	5919.847168	1256.310425	5.217535
690.814087	996.028015	5867.982910	1255.270264	5.321113
691.141296	1000.263245	5815.153809	1248.657349	5.158873
691.468506	999.966003	5763.513184	1245.982300	5.164561
691.795715	1006.504639	5706.746582	1239.740845	4.962217
692.122803	999.148682	5654.808594	1230.527222	4.969833
692.449829	995.284973	5624.195801	1225.103149	4.964844
692.776855	995.062012	5584.443848	1236.620117	5.263412
693.103821	997.588379	5568.320313	1241.152710	5.328782
693.430664	1000.040344	5540.382813	1242.935913	5.349720
693.757568	1000.337585	5527.825684	1236.100220	5.207360
694.084351	995.433594	5508.729004	1238.106323	5.376841
694.411133	1001.154846	5507.688965	1238.180542	5.259601
694.737854	991.644104	5490.302246	1239.072144	5.500041
695.064575	993.427429	5479.899902	1240.558105	5.508351
695.391174	986.368652	5483.615234	1242.564453	5.696726
695.717773	990.529602	5520.320801	1242.861572	5.570499
696.044250	990.603821	5560.146973	1240.335327	5.465131
696.370789	994.467590	5617.954590	1242.787231	5.370831
696.697205	1002.789551	5693.000000	1248.657227	5.242146
697.023621	1014.975159	5831.351563	1262.923462	5.148026
697.349915	1009.179626	5990.805176	1272.582642	5.287491
697.676208	1002.492371	6210.964355	1284.768433	5.419556
698.002380	997.885559	6428.373535	1293.461792	5.442904
698.328674	1004.944336	6651.802246	1310.774292	5.415932
698.654724	1007.322021	6827.082520	1317.312866	5.326522
698.980896	1003.606934	6950.425293	1325.263306	5.408882
699.306946	999.371582	6966.251953	1325.783569	5.470396
699.632935	1004.572754	6877.832031	1329.498535	5.532291
699.958862	1003.012451	6720.235840	1317.833130	5.506531
700.284729	1005.464417	6545.996094	1302.229492	5.356256
700.610596	999.297363	6361.427734	1290.415405	5.429149
700.936340	1001.452087	6176.934082	1281.944824	5.419645
701.262146	1001.006165	5977.134277	1276.892334	5.544194
701.587830	1003.086731	5789.891113	1267.232910	5.518216
701.913513	1001.303467	5598.338379	1263.591919	5.705600
702.239075	1001.897949	5403.962402	1249.697388	5.629164
702.564697	1000.040283	5250.527344	1244.570435	5.752991
702.890137	1001.229187	5134.095215	1234.168213	5.636259
703.215698	996.622375	5077.773438	1231.344849	5.751379
703.541016	992.164246	5010.232910	1221.239624	5.701132
703.866455	995.136414	4954.134277	1230.230225	5.938215
704.191711	1001.303406	4898.332520	1235.802856	6.017390
704.517029	1005.167175	4876.413574	1237.883423	6.011404
704.842163	1004.498474	4847.286621	1229.635864	5.858699
705.167419	999.148682	4839.039063	1232.384888	6.074033
705.492493	1000.634766	4831.534668	1244.644897	6.369525
705.817566	993.798828	4819.942871	1243.678955	6.530860
706.142578	993.575989	4798.320801	1239.592285	6.466039
706.467590	989.043457	4785.243652	1233.648071	6.443407
706.792480	1001.377747	4785.541016	1232.310547	6.102612
707.117371	1006.578918	4803.671387	1234.688354	6.007476
707.442200	1015.792542	4814.222168	1223.691528	5.473288
707.766907	1013.414856	4817.045410	1228.669800	5.659197
708.091675	1013.266174	4811.250000	1230.675903	5.724346
708.416321	1008.585144	4824.104004	1240.706909	6.083622
708.741028	1003.606873	4842.902832	1240.260986	6.163998
709.065552	998.034180	4857.466309	1233.945313	6.112586
709.390137	990.381042	4850.778320	1233.350830	6.293906
709.714600	987.037354	4882.728516	1239.889526	6.490560
710.039063	989.935242	4943.508789	1249.697388	6.570313
710.363403	999.668762	4987.941895	1257.276367	6.459126
710.687744	1004.201355	5038.467285	1262.551880	6.403904
711.012085	1001.303467	5059.644043	1268.570313	6.585619
711.336304	991.792725	5104.522949	1270.353638	6.773138
711.660461	988.300476	5103.631348	1271.691040	6.886216
711.984619	996.770996	5095.234863	1262.403198	6.481263
712.308716	1005.687317	5069.154785	1262.626099	6.323141
712.632751	1006.058838	5030.294434	1260.248413	6.316469
712.956726	1005.910217	4994.183105	1259.728394	6.364112
713.280701	1007.693542	4948.189941	1254.452759	6.262136
713.604553	1010.739929	4900.190430	1249.697388	6.143733
713.928467	1005.984558	4852.785156	1259.356812	6.586571
714.252258	1002.640869	4813.032715	1261.734497	6.799658
714.575989	1004.498474	4797.503418	1257.796387	6.678028
714.899719	1003.235352	4785.020996	1250.960571	6.550483
715.223267	1002.789551	4809.540527	1252.446655	6.558272
715.546936	1001.452148	4815.336426	1255.641602	6.664845
715.870422	1001.972229	4812.587402	1264.260864	6.883105
716.193970	994.987793	4775.807129	1262.180298	7.067053
716.517395	988.820618	4736.873047	1267.307251	7.430169
716.840820	986.517273	4678.842285	1260.174194	7.411507
717.164124	1000.040344	4616.057129	1259.208130	7.167217
717.487488	1006.801941	4560.998535	1252.075195	6.900948
717.810730	1009.105286	4507.723145	1242.341553	6.666526
718.133972	998.702881	4445.977539	1232.533569	6.783060
718.457092	997.885559	4368.405273	1225.400513	6.750144
718.780212	998.702942	4308.963379	1220.496460	6.700183
719.103210	996.102356	4260.592285	1219.679077	6.848749
719.426208	995.284973	4207.985840	1221.982544	7.056293
719.749207	990.678162	4162.587402	1224.880249	7.383632
720.072083	995.582214	4102.550293	1230.601685	7.564270
720.394958	992.907288	4056.928467	1226.292114	7.616945
720.717773	1002.046570	4011.529541	1226.515015	7.458705
721.040527	1000.040344	3987.455811	1214.032104	7.163106
721.363281	1000.857666	3975.938721	1220.347900	7.377622
721.685913	993.650208	3966.502197	1218.118774	7.550613
722.008545	995.433533	3933.585938	1224.806152	7.806696
722.331055	998.925781	3916.273438	1215.146851	7.411563
722.653503	1003.606750	3891.976563	1219.976440	7.491066
722.976013	1006.653259	3893.834229	1219.679199	7.378337
723.298401	1002.863770	3893.314453	1228.446899	7.804428
723.620789	1004.646973	3895.989014	1226.440796	7.670965
723.943115	1002.566589	3910.254883	1224.211548	7.622721
724.265381	1005.390137	3896.805908	1220.273560	7.431772
724.587585	999.223083	3890.936279	1219.753540	7.626291
724.909790	991.867126	3881.722656	1225.400513	8.081144
725.231873	992.387207	3898.812500	1224.583130	7.989055
725.553894	992.089905	3917.908203	1223.468628	7.908171
725.875916	1035.631348	3968.136719	1259.653931	7.639290
726.197937	1036.597168	3973.783936	1270.427979	7.961047
726.519775	1042.764404	3996.371826	1274.960449	7.861439
726.841675	1005.910156	3994.811523	1239.146484	7.803413
727.163513	999.000000	4027.504639	1238.552124	7.909914
727.485291	997.885498	4049.349609	1246.725464	8.154773
727.806946	1000.040283	4066.290283	1249.474487	8.134830
728.128662	1006.727539	4098.240723	1246.873901	7.767923
728.450256	998.925781	4122.835449	1238.106323	7.656449
728.771790	997.588379	4131.974609	1239.592407	7.720938
729.093323	1001.080566	4113.398926	1236.174438	7.553658
729.414795	1007.321960	4088.135498	1242.341431	7.628488
729.736145	1000.337585	4060.272217	1242.564331	7.916076
730.057495	992.312805	4046.005859	1248.359985	8.384836
730.378845	990.158020	4053.064697	1257.350586	8.723496
730.700134	992.535645	4068.222656	1265.152466	8.863607
731.021301	987.408752	4090.290283	1266.935669	9.008623
731.342468	987.260193	4123.354980	1261.585938	8.747368
731.663574	987.705994	4140.741699	1256.235962	8.516554
731.984680	997.216797	4158.574707	1258.093628	8.252049
732.305664	997.959900	4151.590332	1255.715942	8.173312
732.626648	1008.659485	4158.500488	1253.858398	7.784485
732.947571	1007.322083	4162.661621	1254.081299	7.820370
733.268433	1010.442688	4152.110352	1250.886353	7.653377
733.589233	1003.161133	4130.414063	1259.951294	8.211366
733.909973	1006.579041	4091.702148	1261.883179	8.275331
734.230713	1008.585144	4042.290771	1265.598389	8.471925
734.551331	1012.671814	3984.928955	1265.003906	8.489578
734.871948	1006.058899	3930.465088	1257.276489	8.590380
735.192505	1005.018616	3868.793945	1260.322876	8.914954
735.513062	1002.120789	3819.828857	1250.143311	8.802279
735.833435	1007.619141	3763.730225	1251.555054	8.850729
736.153931	998.257019	3719.966064	1237.660522	8.796073
736.474304	993.873230	3682.963135	1237.066040	9.043685
736.794617	995.656494	3681.105469	1231.121704	8.768188
737.114807	1000.263367	3696.486084	1233.499512	8.650478
737.434998	1005.613098	3705.104736	1234.391113	8.474855
737.755188	1001.452148	3709.191650	1244.124756	8.962184
738.075256	1003.383972	3721.823242	1254.750122	9.246709
738.395325	1000.114685	3742.330811	1260.694336	9.502521
738.715271	997.142578	3766.553467	1262.923340	9.597014
739.035278	997.885559	3772.423584	1265.003784	9.627484
739.355164	998.925781	3789.290283	1264.706543	9.524948
739.675049	1001.377747	3769.376953	1258.985229	9.306631
739.994873	999.743103	3747.606201	1252.818237	9.209889
740.314636	1003.012390	3696.931641	1253.784058	9.308805
740.634277	1002.417969	3655.694092	1258.985352	9.669833
740.953979	1004.647156	3612.449463	1255.270142	9.610506
741.273499	999.520264	3575.149658	1251.480591	9.782476
741.593140	1008.065125	3540.375977	1248.731445	9.503822
741.912598	1002.269531	3525.292725	1252.075073	9.901040
742.232117	1007.842102	3493.936768	1244.942139	9.537047
742.551453	1000.486145	3464.215576	1240.186646	9.729173
742.870850	1007.247620	3422.085938	1236.100098	9.476928
743.190063	1003.755371	3394.371094	1239.963745	9.880651
743.509338	1009.625305	3377.281250	1226.737915	9.169939
743.828552	1009.551025	3363.832764	1220.570801	8.963234
744.147705	1010.739929	3334.260498	1220.645020	9.033925
744.466797	999.371582	3297.480469	1229.264160	10.003554
744.785828	999.222961	3272.365967	1232.310669	10.253983
745.104858	1003.755432	3269.988281	1231.196167	10.036071
745.423706	1014.455078	3271.548828	1230.007324	9.549991
745.742615	1013.043274	3264.044189	1226.738037	9.493321
746.061401	1006.430359	3270.880127	1220.125000	9.436934
746.380249	1001.229187	3261.220703	1224.434448	9.876376
746.698975	999.817383	3250.075195	1222.131104	9.879478
747.017639	995.730713	3234.323242	1222.130981	10.113509
747.336304	988.003235	3226.967041	1217.301514	10.241267
747.654907	986.294250	3218.793945	1216.855713	10.327502
747.973389	993.278748	3227.115967	1224.360229	10.344599
748.291931	1004.572754	3223.177734	1226.515015	10.003685
748.610352	1006.430359	3220.428711	1224.360229	9.843272
748.928711	999.966064	3203.041748	1222.577026	10.104553
749.247070	991.792725	3220.131104	1219.827759	10.233412
749.565308	988.894958	3223.103516	1230.824585	10.828426
749.883545	998.257080	3215.004639	1229.858643	10.447809
750.201782	1003.606934	3195.834229	1229.932983	10.324023
750.519836	1001.526367	3194.348389	1228.001099	10.328003
750.837952	996.845276	3190.781982	1225.846313	10.437905
751.155884	1003.160950	3189.072510	1230.453125	10.398049
751.473877	1009.922546	3181.939453	1231.121704	10.184044
751.791809	1005.167175	3173.915039	1226.960815	10.226807
752.109619	996.548035	3173.840820	1223.394165	10.418724
752.427490	995.210632	3161.208984	1222.799805	10.507357
752.745300	997.068176	3161.952148	1229.041382	10.715272
753.062988	1003.606873	3138.100830	1231.121826	10.658965
753.380615	1004.721375	3116.479248	1236.694458	10.984834
753.698303	1011.482910	3106.893799	1235.431274	10.687563
754.015808	1003.384033	3107.934326	1239.146362	11.202504
754.333374	1004.349915	3145.457031	1236.620117	10.848135
754.650757	1002.343750	3146.720459	1236.620117	10.925150
754.968262	1014.157898	3160.169189	1234.539673	10.269367
755.285583	1013.934875	3144.936768	1236.025757	10.421900
755.602905	1006.058899	3142.485107	1240.632446	10.979716
755.920105	995.433533	3110.460205	1236.843140	11.414022
756.237305	992.907288	3105.556641	1238.031860	11.602710
756.554443	992.387146	3100.726807	1239.220703	11.707486
756.871582	995.062012	3114.695557	1243.158813	11.704702
757.188599	996.399414	3120.639893	1233.053589	11.140649
757.505615	1007.396240	3154.076172	1228.892578	10.318089
757.822510	1007.767761	3187.066650	1233.573853	10.361410
758.139465	1011.557190	3218.422607	1245.610840	10.605705
758.456238	1010.145447	3228.156250	1256.533325	11.108507
758.773010	1005.167175	3241.456299	1265.672485	11.649000
759.089783	999.297180	3254.533447	1272.136841	12.098052
759.406433	992.535706	3255.053467	1268.570435	12.200334
759.723145	996.696716	3262.186523	1266.712891	11.918667
760.039673	1002.938171	3265.381592	1268.050171	11.717951
760.356201	1001.600647	3291.759033	1271.691040	11.793525
760.672668	995.210632	3302.161377	1268.198853	11.833292
760.989136	983.619385	3294.210938	1266.044067	12.223046
761.305481	983.173584	3292.576416	1265.821167	12.238990
761.621826	995.359314	3297.182861	1273.474487	12.082385
761.938049	1003.309631	3332.774170	1271.393921	11.508408
762.254333	1005.167175	3370.594482	1277.486694	11.512487
762.570496	1001.526367	3454.927979	1279.864380	11.344984
762.886597	999.594543	3587.558594	1297.102661	11.495836
763.202637	1000.040344	3803.630859	1318.650391	11.364357
763.518677	998.851501	4072.606445	1356.841919	11.646681
763.834656	1000.783386	4319.365723	1387.083130	11.640505
764.150574	1007.396301	4476.738770	1419.107788	11.867133
764.466370	1007.247742	4502.521973	1420.519409	11.823727
764.782288	1006.876221	4419.302734	1411.157227	11.847318
765.097961	996.771057	4240.827637	1389.609497	12.109482
765.413696	993.353088	4028.693359	1370.067871	12.410957
765.729309	988.003235	3818.862549	1357.584961	13.055460
766.044861	988.077637	3661.712646	1330.687378	12.814380
766.360474	985.699951	3533.614502	1314.563721	12.907174
766.675903	986.220032	3439.696045	1301.189209	12.837670
766.991394	988.895020	3356.922607	1298.142822	13.059299
767.306763	991.198303	3289.158447	1290.712524	13.033916
767.622131	992.535828	3224.886719	1281.127563	12.927705
767.937378	988.746277	3165.890625	1272.434082	13.030272
768.252625	988.820618	3130.224854	1266.787109	12.980571
768.567810	996.473816	3105.927979	1254.675659	12.240221
768.882996	1005.984436	3074.052002	1248.508667	11.727094
769.197998	1012.151550	3042.844971	1234.019531	10.925725
769.513062	1007.247742	2997.223389	1244.793457	11.937117
769.828064	1004.424133	2977.533203	1249.326050	12.411981
770.142944	990.009460	2943.651123	1262.180420	13.931468
770.457825	987.928955	2925.818359	1258.093750	13.941188
770.772705	990.009460	2904.790283	1248.508545	13.500193
771.087402	999.297363	2881.013672	1239.889404	12.785776
771.402100	998.702881	2858.128662	1233.202271	12.611387
771.716736	992.164246	2829.150391	1241.598511	13.578451
772.031372	995.656494	2816.295898	1234.465332	13.116756
772.345947	999.000000	2805.596436	1238.477661	13.255736
772.660461	1007.321960	2799.949219	1230.081543	12.426431
772.974854	1008.065002	2783.231445	1235.877075	12.833280
773.289246	1008.733704	2775.875244	1225.400513	12.260863
773.603638	999.743164	2756.036377	1224.731812	12.810427
773.917908	998.554260	2739.764404	1225.920532	13.057945
774.232178	1000.263245	2720.593994	1225.400513	13.086859
774.546265	999.520203	2704.247559	1225.400513	13.250232
774.860474	993.873230	2683.442871	1214.180786	13.039271
775.174561	993.724609	2653.275879	1213.512085	13.243790
775.488586	998.257019	2642.947998	1204.892944	12.563815
775.802551	1005.390076	2638.861084	1205.784668	12.268023
776.116516	999.817383	2636.112061	1206.230347	12.614657
776.430359	993.055847	2629.870361	1212.694702	13.418677
776.744202	990.901062	2627.269775	1223.840088	14.235119
777.057922	994.616211	2627.195557	1218.639038	13.722017
777.371704	999.445862	2629.127441	1209.053833	12.861897
777.685303	997.737000	2630.762207	1207.121948	12.821906
777.998962	999.594543	2632.545166	1214.998047	13.191060
778.312500	1001.897888	2628.607178	1224.657471	13.693878
778.626038	996.473816	2616.347412	1220.124878	13.806699
778.939453	989.043457	2609.363037	1213.660645	13.862524
779.252869	989.712219	2608.991455	1213.512085	13.820955
779.566223	992.164246	2601.338379	1215.443848	13.875417
779.879578	994.690613	2611.072021	1223.840088	14.176697
780.192749	999.594543	2606.316650	1221.239502	13.794853
780.505920	1002.343750	2615.530029	1216.038452	13.246747
780.819031	996.325195	2599.480713	1212.100220	13.459394
781.132141	990.232422	2602.452881	1212.917603	13.812328
781.445190	993.947571	2582.985352	1207.567749	13.443366
781.758118	999.000061	2581.127686	1201.029175	12.769457
782.071045	997.662598	2552.447021	1198.131348	12.893668
782.383911	993.798828	2544.422119	1199.691772	13.278076
782.696838	997.365417	2528.224365	1199.543091	13.206813
783.009583	1003.235352	2523.246094	1202.366577	13.100646
783.322266	1011.260071	2500.435303	1207.270630	13.162356
783.634888	1018.170227	2482.528320	1205.635864	12.801898
783.947510	1020.399231	2455.853760	1198.577271	12.412656
784.260132	1009.922546	2441.438721	1197.239746	13.085232
784.572571	997.365417	2416.324463	1199.320190	14.232601
784.885010	992.312805	2406.516602	1197.759766	14.527393
785.197449	997.068176	2403.767334	1190.032349	13.717515
785.509766	999.520203	2402.058594	1194.267578	13.885351
785.822083	997.514099	2398.417725	1195.307983	14.119022
786.134277	997.291199	2395.445557	1202.366577	14.667579
786.446533	1000.188965	2399.829346	1196.793945	14.046821
786.758606	1004.870056	2399.086182	1201.252075	14.085480
787.070740	1004.498535	2402.727295	1198.057007	13.843119
787.382690	1007.990723	2405.699219	1199.171509	13.678159
787.694641	1008.956726	2433.414307	1204.149780	13.702974
788.006653	1010.517029	2467.593262	1214.849487	14.023458
788.318481	1005.464417	2525.772217	1226.886475	14.564291
788.630310	1008.659485	2565.375732	1227.629517	14.066149
788.942017	1005.092957	2609.437256	1225.251831	13.722671
789.253784	997.513977	2631.505127	1223.840088	13.851122
789.565430	987.706055	2641.090088	1226.960815	14.470611
789.877014	994.839172	2610.625977	1233.870972	14.793523
790.188538	1002.269348	2560.100098	1229.858643	14.609372
790.500061	1003.978333	2511.134766	1224.137329	14.607574
790.811462	997.439697	2478.590088	1220.273682	15.044656
791.122925	1004.052734	2446.863037	1218.936157	14.893394
791.434204	998.034180	2412.609375	1217.152954	15.490076
791.745483	1003.161072	2384.820068	1216.112671	15.412747
792.056702	998.479980	2360.374512	1217.227295	16.061987
792.367920	1007.842102	2352.275635	1213.809326	15.320000
792.678955	1002.863831	2340.387451	1203.183960	14.976941
792.990112	1000.560364	2339.866943	1189.066406	14.074898
793.301086	991.272522	2325.897705	1191.146973	14.976073
793.612122	992.610046	2316.461670	1192.855835	15.126000
793.922974	997.736877	2299.520264	1203.852661	15.833339
794.233826	1004.126953	2297.365723	1195.902344	14.829079
794.544556	1002.566589	2309.328369	1192.484375	14.533467
794.855286	994.690491	2329.315918	1190.552490	14.675427
795.166016	996.028015	2336.374756	1201.400757	15.322360
795.476624	990.083801	2333.848389	1208.682495	16.267632
795.787292	993.130188	2341.947266	1212.397461	16.256264
796.097778	990.901123	2370.851318	1213.140503	16.104883
796.408264	990.009460	2394.553711	1215.815430	16.076815
796.718689	987.186035	2417.959229	1227.332397	16.784376
797.029053	989.266418	2429.476318	1225.994873	16.437078
797.339355	996.176575	2432.522461	1224.954712	15.927788
797.649658	1005.315735	2427.544189	1219.604858	15.067138
797.959839	1005.018616	2405.476318	1218.341797	15.232389
798.270020	1006.133118	2382.665283	1216.781372	15.302820
798.580078	1001.972168	2351.681152	1206.899048	15.183042
798.890137	1001.749329	2322.405762	1206.527710	15.505802
799.200195	1000.560364	2312.597900	1199.468872	15.160275
799.510071	992.684387	2294.839600	1195.976563	15.611977
799.820007	990.232361	2286.888916	1191.444214	15.517745
800.129883	994.244690	2277.824219	1192.558594	15.450067
800.439575	1004.201233	2263.112061	1188.769165	14.660921
800.749329	1010.517029	2244.610840	1193.747437	14.847365
801.058960	1007.842102	2223.583252	1192.558594	15.193734
801.368591	1004.052734	2220.685547	1200.583252	16.153643
801.678162	994.987732	2218.456299	1198.057007	16.597834
801.987671	994.616211	2213.552490	1198.577271	16.732708
802.297119	988.077576	2208.499756	1190.106812	16.554047
802.606506	994.393372	2202.927002	1183.270874	15.628650
802.915894	990.752625	2184.277100	1175.692017	15.495234
803.225159	996.325195	2168.525146	1179.035645	15.586969
803.534424	997.365417	2162.283447	1182.082031	15.856620
803.843628	1000.411865	2166.444580	1193.227417	16.536034
804.152771	1000.708984	2165.478516	1189.289429	16.190365
804.461792	1002.938171	2163.323730	1190.255249	16.142660
804.770874	1000.783386	2161.763428	1188.026245	16.128000
805.079773	1002.269470	2177.069824	1193.078735	16.241846
805.388733	999.891663	2192.376221	1188.249023	15.795370
805.697571	1006.801941	2211.546143	1190.181030	15.221414
806.006470	1007.619202	2219.570557	1197.165527	15.639763
806.315125	1007.767822	2226.555420	1210.242798	16.612820
806.623901	1007.544922	2227.001221	1217.301392	17.200819
806.932495	1002.938232	2221.651367	1208.533691	16.869881
807.241150	1007.396301	2212.958008	1204.075562	16.314325
807.549622	1002.789551	2200.549561	1196.868286	16.203474
807.858154	1008.213684	2185.763184	1195.753784	15.926302
808.166565	1008.139343	2167.781982	1190.701172	15.742939
808.474915	1010.888489	2156.488037	1185.871582	15.274367
808.783264	1008.139343	2149.354736	1185.648560	15.554401
809.091492	1004.646973	2136.723389	1174.874634	15.036764
809.399719	1002.120789	2123.423096	1171.679565	15.121594
809.707825	1006.950500	2106.853516	1168.335815	14.672685
810.015930	1001.823669	2101.429443	1178.589722	16.075403
810.323975	998.257019	2106.556396	1184.236816	16.780647
810.632080	991.644104	2097.417236	1185.871460	17.564846
810.939880	992.312805	2084.711426	1182.304810	17.392185
811.247864	997.513977	2061.900635	1180.447144	17.186720
811.555664	997.068176	2057.442383	1184.979858	17.721260
811.863464	997.811218	2050.829346	1184.162354	17.696859
812.171143	996.919617	2047.782837	1176.880737	17.125074
812.478882	1002.195129	2038.792358	1169.673340	16.156538
812.786438	1009.030945	2032.253784	1166.924194	15.430974
813.094055	1009.551086	2016.055664	1173.016968	16.240948
813.401489	1013.191833	2015.609863	1171.085083	15.751238
813.708984	1005.241455	2015.832642	1171.828247	16.484093
814.016357	1004.052551	2023.337280	1171.233765	16.401817
814.323730	997.513977	2015.238647	1174.651733	17.405273
814.630981	998.925781	2017.541870	1177.029297	17.484852
814.938232	993.724548	2013.901001	1175.617676	17.829575
815.245361	995.062012	2003.795776	1174.651733	17.803480
815.552490	994.244629	1992.278809	1173.462891	17.957127
815.859619	998.925781	1989.901001	1169.450562	17.207775
816.166565	992.164246	1999.263306	1164.620972	17.124107
816.473572	998.331360	2000.452148	1161.351563	16.267521
816.780457	1006.133118	2000.972168	1165.883911	16.057953
817.087341	1011.260010	2009.294312	1165.958374	15.500305
817.394043	1008.065002	2024.823608	1165.661011	15.499846
817.700806	991.792725	2036.711914	1168.633179	16.923840
818.007507	992.015625	2043.770630	1172.348267	17.145880
818.314209	990.380920	2047.634399	1183.791016	18.293636
818.620667	998.182800	2064.872559	1183.270874	17.351633
818.927246	996.696777	2084.785889	1191.964233	17.945906
819.233704	992.981628	2123.051514	1199.097290	18.239197
819.540161	995.062073	2159.831543	1208.756714	18.346518
819.846497	996.250916	2240.672852	1221.759644	18.121565
820.152832	1005.241516	2332.510986	1234.539673	17.275930
820.458984	998.257019	2445.822510	1258.836792	18.001244
820.765259	1000.560364	2547.914795	1283.951050	18.314529
821.071350	995.582214	2667.170654	1310.031250	18.811392
821.377502	999.966003	2871.502930	1331.727661	17.726696
821.683472	995.879333	3282.768555	1397.931274	17.580736
821.989441	994.244690	4056.185547	1528.183960	17.437935
822.295349	995.730774	5292.211426	1754.510132	17.660486
822.601196	997.142517	6822.550293	2027.275513	17.683451
822.907043	1000.708984	8244.778320	2295.433838	17.872894
823.212769	1001.303467	9111.743164	2471.457031	18.126682
823.518494	998.034119	9141.463867	2490.850098	18.331537
823.824097	991.272644	8468.801758	2365.204102	18.374136
824.129700	991.644043	7345.640625	2150.840820	18.243586
824.435242	996.696594	6167.273926	1938.260742	18.210039
824.740723	994.318909	5155.197266	1770.708130	18.659262
825.046082	996.845215	4401.098633	1638.820923	18.858047
825.351501	989.712219	3893.313721	1546.313965	19.169357
825.656799	1000.188965	3542.010742	1467.924683	18.401594
825.962036	996.399475	3329.207764	1432.184937	18.680723
826.267212	1004.647156	3243.982422	1414.946655	18.322380
826.572449	1002.789490	3263.821289	1428.766968	18.839960
826.877502	996.325195	3431.225342	1457.299316	18.931952
827.182495	995.953674	3733.637451	1516.369751	19.009356
827.487488	991.124023	4144.457031	1574.548828	18.501846
827.792419	997.737000	4466.039063	1634.362671	18.355543
828.097290	991.346863	4581.654297	1658.139648	18.572025
828.402100	1001.006165	4433.271973	1640.827026	18.641356
828.706848	1005.464355	4093.931641	1580.047485	18.604151
829.011597	1011.780090	3664.090576	1491.850098	18.100067
829.316223	999.594482	3237.815674	1413.980835	18.514093
829.620789	993.278748	2897.509033	1347.033936	18.577333
829.925354	994.170410	2629.573242	1301.857910	18.814173
830.229797	1001.823547	2431.705322	1274.365967	19.060486
830.534302	1005.910217	2284.808838	1252.075195	19.248199
830.838562	1006.058777	2194.605225	1231.939087	19.004753
831.142944	999.297180	2128.252930	1207.567749	18.448071
831.447144	990.158020	2080.030273	1197.834106	19.055084
831.751404	986.740051	2046.965698	1193.450195	19.496807
832.055542	989.935120	2047.188477	1203.183960	20.170078
832.359619	993.724609	2072.005615	1200.954956	19.218584
832.663635	997.737000	2112.426514	1210.465698	19.084122
832.967651	1004.424255	2185.985840	1220.273560	18.268139
833.271545	1010.442688	2303.161377	1242.861572	17.979076
833.575439	1008.956604	2481.041992	1280.533081	18.448418
833.879211	1002.715149	2727.504150	1324.223022	18.640417
834.183044	1001.972168	3000.938477	1382.699219	19.046196
834.486694	999.891785	3203.710693	1423.045776	19.200943
834.790344	1002.417969	3271.177490	1438.351929	19.214640
835.093933	1004.647156	3183.648682	1417.993164	18.969515
835.397522	1001.972168	3008.368408	1385.002808	19.090479
835.700928	1003.458191	2785.163086	1339.975342	18.887367
836.004395	1002.789551	2571.171143	1305.350220	19.291265
836.307739	995.062012	2385.934570	1262.328979	19.215776
836.611023	993.501709	2237.254883	1238.031982	19.660675
836.914307	987.557434	2113.912354	1216.187012	20.298182
837.217529	996.919617	2030.767700	1198.577271	19.505539
837.520691	991.718445	1959.139771	1180.893188	19.554535
837.823730	994.913513	1906.161743	1161.351440	18.264828
838.126831	996.622375	1851.995239	1155.630249	18.589306
838.429749	998.034119	1815.735474	1154.218506	19.100420
838.732727	996.919617	1785.642944	1152.435181	19.717379
839.035522	999.371582	1772.788574	1152.360840	19.780954
839.338379	1000.560486	1766.026978	1146.713867	19.093374
839.641113	1003.755432	1778.881470	1150.206177	18.893797
839.943848	1003.309570	1803.178589	1152.509521	18.653048
840.246460	1004.201355	1854.224243	1161.648804	18.522730
840.549072	1006.356018	1910.545776	1172.794067	18.407425
840.851563	994.913513	1958.991211	1183.493652	19.560678
841.154053	994.021790	1974.000366	1180.893066	19.068914
841.456482	990.826843	1956.836548	1171.976807	18.752396
841.758850	1005.984558	1888.775024	1156.744751	17.077686
842.061157	1007.693542	1817.816040	1143.964722	16.821058
842.363403	1004.944275	1744.999512	1132.299194	17.208839
842.665588	998.479919	1699.080444	1121.971069	17.626471
842.967712	1000.708984	1661.408813	1120.633667	18.151159
843.269775	998.257019	1622.028320	1112.088867	18.248972
843.571777	998.479980	1600.034790	1110.528442	18.626476
843.873840	994.467590	1579.750122	1097.376831	17.582832
844.175659	1001.526367	1562.660522	1094.924927	16.644604
844.477600	1001.377747	1537.546265	1089.575073	16.449553
844.779297	1004.572815	1522.165527	1097.822754	18.016085
845.081116	998.108398	1513.694946	1103.246704	20.391979
845.382751	998.479980	1511.391602	1096.113770	19.035208
845.684387	997.216797	1497.645508	1094.330444	19.406090
845.985962	1001.674988	1489.249512	1090.095337	18.134735
846.287537	996.102356	1477.881226	1091.135498	19.725470
846.588989	990.009460	1471.045288	1091.729980	21.146143
846.890381	991.124023	1467.553101	1086.900269	20.102940
847.191711	993.501648	1465.546875	1088.312012	20.085016
847.493042	998.554260	1456.407593	1085.117065	18.906231
847.794250	994.839172	1449.720337	1089.203491	20.744829
848.095459	1001.377747	1441.101196	1092.027100	20.615084
848.396606	1004.721436	1445.336548	1086.602905	18.583447
848.697693	1000.263245	1443.553345	1082.219116	18.488091
848.998657	994.244812	1440.358276	1081.698853	19.603542
849.299622	992.461487	1430.030151	1079.247070	19.833591
849.600464	993.650330	1420.519531	1080.064331	20.243671
849.901367	995.582092	1410.711548	1070.107788	17.952398
850.202087	989.563660	1411.231567	1069.067627	18.854641
850.502808	999.743164	1414.649414	1064.757935	15.669749
850.803467	1006.281738	1420.519409	1071.147949	15.659177
851.104065	1015.643860	1414.575195	1071.593872	14.024973
851.404663	1008.510742	1410.339966	1073.005493	16.050289
851.705139	1005.687317	1402.315063	1070.627808	16.373159
852.005615	1001.006287	1406.253296	1075.531860	18.390160
852.306030	997.959900	1400.606323	1077.983765	19.874475
852.606384	996.102295	1398.525757	1082.813477	21.547249
852.906616	990.603821	1391.541382	1081.253296	22.609375
853.206909	991.867004	1399.045898	1074.863159	20.383217
853.506958	994.170410	1397.634155	1065.946777	17.790041
853.807129	997.662598	1398.525757	1063.494873	16.422630
854.107178	1000.486145	1392.061523	1066.095459	16.755219
854.407166	998.628601	1387.677612	1066.689941	17.494284
854.707092	996.622375	1384.482544	1067.953003	18.390810
855.007019	997.291077	1374.674683	1070.107788	19.295145
855.306763	997.142517	1373.188599	1069.141846	19.146412
855.606567	1008.659363	1364.198120	1065.500977	15.987459
855.906250	1007.247620	1363.009277	1064.089233	15.977443
856.205933	1006.578918	1366.575806	1068.473022	17.192955
856.505493	998.182800	1370.959595	1071.445190	19.653152
856.805054	995.210632	1376.383667	1070.182007	19.668594
857.104492	995.062012	1379.058472	1070.182007	19.562679
857.403931	991.272644	1382.104858	1073.748535	21.102634
857.703308	991.198303	1382.104858	1067.581543	19.540026
858.002563	988.820618	1376.680786	1057.996460	17.835253
858.301819	995.359375	1371.999878	1053.984009	15.565144
858.601013	999.297363	1363.232056	1053.686890	14.944859
858.900208	1003.978333	1353.349854	1059.333862	15.844316
859.199219	999.817383	1349.783325	1061.860107	17.728218
859.498291	1002.195068	1350.154785	1071.148071	19.816376
859.797302	997.959778	1348.594360	1074.417358	21.805489
860.096191	1004.795654	1350.080444	1064.980957	17.430626
860.395020	994.541992	1343.913208	1054.652710	17.205400
860.693787	1000.857666	1349.411621	1049.080078	13.834992
860.992554	994.541809	1349.560303	1047.371094	14.880713
861.291260	1003.532471	1356.990601	1048.114136	12.612997
861.589844	1003.086731	1362.043091	1044.621948	11.571105
861.888428	1009.030945	1357.213501	1057.327637	13.871083
862.186890	1012.820374	1344.433472	1063.494873	15.281212
862.485413	1013.786316	1334.402466	1069.439087	17.358068
862.783813	1004.795654	1334.922607	1057.030396	15.822622
863.082153	1001.526367	1337.077515	1053.241089	15.411875
863.380371	993.650330	1336.854492	1047.519653	15.695999
863.678589	1000.337585	1334.625488	1052.497925	15.603418
863.976746	993.798889	1332.990845	1055.990112	18.335112
864.274902	996.548096	1331.802002	1061.562988	19.392733
864.572937	992.312805	1327.715332	1057.104736	19.317663
864.870911	996.770996	1328.235474	1054.578491	17.440027
865.168884	995.582214	1335.145630	1054.950073	17.483585
865.466736	996.473816	1337.894897	1061.191528	18.955395
865.764587	996.845276	1342.501587	1067.655884	20.485842
866.062317	994.690491	1337.300415	1068.770386	21.622227
866.360107	999.743103	1336.631714	1070.553589	21.018961
866.657715	994.393311	1339.083618	1073.302734	22.892847
866.955322	1005.167236	1340.718262	1071.222290	19.685547
867.252808	998.702881	1334.774048	1061.414429	18.660198
867.550293	1006.281738	1324.000244	1048.411377	13.260052
867.847717	996.993896	1314.118042	1049.080200	16.424578
868.145081	1000.783386	1314.563843	1058.219360	18.304510
868.442383	993.947510	1314.786499	1065.129517	22.186209
868.739624	996.473816	1317.312866	1063.048950	20.750322
869.036804	999.148743	1323.257080	1057.996460	18.156805
869.333984	1007.619324	1321.250977	1042.913086	11.253253
869.631042	1006.801941	1322.439819	1042.170044	11.205278
869.928101	1001.229187	1316.569946	1042.467285	13.077313
870.224976	997.216797	1324.891968	1050.417603	16.235836
870.521851	998.182800	1330.984741	1056.584717	17.548550
870.818726	1001.154785	1325.486206	1055.024414	16.609438
871.115479	999.966003	1325.634888	1061.488647	18.891165
871.412231	1000.114563	1315.752563	1063.197632	19.985891
871.708862	1000.337585	1321.548218	1063.792114	19.754803
872.005493	998.851379	1314.563599	1053.686890	17.368828
872.302063	1000.337463	1320.507935	1049.005859	15.200776
872.598572	1004.275574	1324.520264	1053.241089	15.290031
872.895020	1004.498474	1333.882446	1060.299805	16.941118
873.191406	1002.640869	1344.210449	1053.092407	14.770501
873.487671	996.993896	1351.417847	1052.869507	15.765190
873.783997	995.879395	1358.773804	1051.234985	15.253911
874.080200	991.644043	1360.259888	1058.739624	18.202034
874.376343	996.696594	1361.002930	1057.327759	16.642906
874.672424	998.108398	1346.439575	1059.110962	17.512806
874.968445	1007.247620	1338.637817	1059.036743	15.627838
875.264465	1008.213562	1332.470703	1066.689941	18.033953
875.560364	1007.842102	1336.408813	1070.702271	19.131630
875.856201	1002.046448	1336.260254	1064.460815	18.674982
876.152039	998.925781	1335.814331	1052.646606	15.946172
876.447754	992.387146	1333.436646	1049.154419	16.644878
876.743469	990.901062	1323.108521	1049.600220	17.669428
877.039063	983.470764	1318.873291	1051.160522	20.181648
877.334595	989.266357	1322.365601	1053.315308	19.228188
877.630127	989.860840	1327.938232	1062.157349	21.384604
877.925537	992.089905	1328.904175	1067.135620	22.281038
878.221008	996.770996	1330.836060	1070.702148	22.130764
878.516296	1001.229187	1341.461426	1071.370972	20.615854
878.811646	1004.647156	1356.990601	1075.160278	20.012611
879.106812	1003.086731	1375.269165	1074.714478	19.245333
879.401978	995.284973	1396.148071	1075.011841	19.888802
879.697083	998.034180	1416.284180	1081.847778	20.039116
879.992126	1001.229187	1455.738892	1087.197510	18.914518
880.287109	1000.114563	1502.103882	1105.475952	20.988771
880.582031	985.328308	1589.038086	1117.513062	21.895414
880.876892	981.984680	1728.727173	1150.651978	22.587076
881.171753	988.226135	2001.120972	1197.239624	20.635260
881.466492	998.479980	2446.119873	1298.291382	20.710358
881.761230	1000.486145	3053.544922	1428.618286	20.853378
882.055786	994.021790	3671.297607	1575.068970	21.702925
882.350403	993.947510	4096.011719	1658.362305	21.418474
882.644958	991.049622	4187.329590	1678.126953	21.496155
882.939453	994.319031	3973.040771	1630.053101	21.342514
883.233826	996.845276	3577.229736	1554.041382	21.593531
883.528137	995.656433	3140.850342	1462.946289	21.783106
883.822449	996.770996	2740.507080	1373.188599	21.586845
884.116577	997.216797	2423.383057	1308.768188	21.845377
884.410828	992.832947	2171.868408	1259.505371	22.617847
884.704956	991.049622	1982.322266	1221.016602	23.199165
884.999023	986.368591	1825.246216	1186.020020	23.799828
885.292969	995.433533	1713.792358	1153.178223	21.959038
885.586914	996.473816	1642.758789	1133.265137	21.165791
885.880798	1000.486145	1598.994629	1117.364258	19.528231
886.174622	998.925781	1564.815430	1105.698730	18.868156
886.468384	1001.229187	1537.917603	1101.983521	18.773338
886.762085	1000.114563	1512.729126	1091.878418	17.901140
887.055664	1001.080566	1491.552734	1090.764038	18.285130
887.349304	1003.904053	1461.683105	1076.274902	15.809122
887.642822	1007.470642	1441.546997	1071.593872	14.772339
887.936340	1004.869934	1417.695801	1073.079834	16.522680
888.229736	1000.857666	1384.705444	1071.519409	18.408792
888.523071	999.148682	1361.522949	1067.507202	18.864065
888.816284	998.702881	1337.077515	1058.665161	17.720678
889.109619	1001.452148	1329.498535	1060.374146	17.961483
889.402710	1002.566650	1309.213867	1056.956177	17.736839
889.695862	1003.160950	1293.015869	1058.293701	19.020809
889.988892	1004.795715	1279.864380	1052.126587	17.206930
890.281921	1010.665649	1273.697266	1047.668457	14.067818
>>>>>End Processed Spectral Data<<<<<
