Jaz Data File
++++++++++++++++++++++++++++++++++++
Date: Fri Jun 04 13:31:12 2021
User: jaz
Dark Spectrum Present: Yes
Reference Spectrum Present: Yes
Processed Spectrum Present: Yes
Spectrometers: JAZA3586
Integration Time (usec): 31100 (JAZA3586)
Spectra Averaged: 10 (JAZA3586)
Boxcar Smoothing: 1 (JAZA3586)
Correct for Electrical Dark: No (JAZA3586)
Strobe/Lamp Enabled: Yes (JAZA3586)
Correct for Detector Non-linearity: No (JAZA3586)
Correct for Stray Light: No (JAZA3586)
Number of Pixels in Processed Spectrum: 2048
>>>>>Begin Processed Spectral Data<<<<<
W	D	R	S	P
191.335022	0.000000	0.000000	0.000000	0.000000
191.713211	311.774200	307.316071	299.662872	271.668365
192.091385	620.056213	618.050110	606.978943	651.874146
192.469528	933.390808	929.452820	920.685059	322.645691
192.847641	935.025452	940.375244	935.174011	2.776922
193.225739	947.582703	947.211121	949.514465	-519.875183
193.603790	957.464844	953.749695	955.904480	42.000034
193.981842	966.529785	961.923035	959.099548	161.290192
194.359863	966.455505	971.953857	955.532959	-198.651276
194.737854	968.461670	984.139465	963.409119	-32.227436
195.115829	970.542175	980.944519	963.780579	-65.000702
195.493774	972.176819	973.142761	963.409119	-907.683533
195.871704	968.758850	965.712463	955.458740	436.586395
196.249603	973.216980	963.037598	960.882813	121.168129
196.627457	972.325439	967.495667	964.746582	156.919540
197.005310	966.158264	966.306885	960.511230	-3799.630371
197.383133	957.464905	966.232605	958.133606	7.626871
197.760910	956.424622	969.724792	963.111877	50.279472
198.138687	960.734192	971.879639	967.792969	63.333279
198.516449	961.180115	970.244934	964.597900	37.703846
198.894180	967.198547	966.529785	951.223389	2388.765137
199.271866	970.616516	967.198425	948.325623	652.144592
199.649536	968.015869	978.789612	948.920105	-177.243546
200.027191	971.879578	978.046631	952.486572	-314.461456
200.404816	968.535950	975.223145	950.406067	-271.113434
200.782410	970.170654	979.235535	944.759094	-280.329803
201.159988	960.882813	990.009460	942.529968	-63.010490
201.537537	951.966492	1006.504700	940.672424	-20.708542
201.915070	951.594910	1007.990723	943.421631	-14.492705
202.292557	946.988098	1005.612976	954.121277	12.167495
202.670029	953.675354	1004.201355	955.904480	4.411839
203.047485	945.947937	1003.755432	961.031311	26.092419
203.424911	943.867493	1004.721375	957.687744	22.710550
203.802292	943.941833	1007.024719	961.105652	27.208359
204.179688	946.765320	997.291016	962.963196	32.058689
204.557037	951.817871	996.770996	960.139648	18.512121
204.934357	948.102722	993.724609	961.402832	29.152914
205.311661	942.678528	1000.560486	958.207825	26.829252
205.688934	943.941711	998.554199	952.040710	14.829940
206.066177	946.022278	993.501648	949.960266	8.294104
206.443390	951.817871	996.770996	946.616638	-11.570348
206.820587	946.913818	997.811218	950.257507	6.569469
207.197769	948.919983	994.319031	948.771484	-0.327096
207.574921	948.771484	986.665833	951.297791	6.666709
207.952042	953.675476	985.625671	950.257507	-10.697803
208.329147	946.988220	992.907227	949.514465	5.501524
208.706223	955.532959	1006.281738	957.167664	3.221170
209.083267	950.034607	1007.099121	953.972656	6.901048
209.460297	951.149109	995.879395	945.204895	-13.289014
209.837280	939.334961	983.916687	933.167908	-13.833141
210.214264	938.889160	978.121033	932.127625	-17.234802
210.591217	942.455750	986.740051	936.734375	-12.919645
210.968124	953.155273	987.780334	934.951172	-52.574928
211.345016	954.492737	991.124023	938.889160	-42.596310
211.721893	946.988220	993.204529	935.248291	-25.402136
212.098724	941.118225	995.582214	935.099670	-11.050521
212.475555	946.542297	1003.086731	932.350525	-25.098444
212.852356	949.217285	999.743103	942.529968	-13.235445
213.229126	945.353516	996.399597	941.192566	-8.151360
213.605865	937.923157	990.752441	938.369141	0.844198
213.982590	937.551697	988.820618	926.926453	-20.724533
214.359283	946.319519	982.356262	927.297913	-52.783920
214.735931	947.879822	981.910461	933.762268	-41.484833
215.112579	953.824036	980.795898	939.112061	-54.545639
215.489197	948.845703	988.300537	937.477356	-28.813572
215.865799	949.068665	984.436707	932.276184	-47.479248
216.242355	941.118225	989.935120	927.223633	-28.462671
216.618896	940.523865	992.907227	932.796326	-14.751896
216.995407	947.359680	995.582214	937.848938	-19.722610
217.371902	953.452576	992.758606	942.901550	-26.843273
217.748367	952.338074	991.123962	946.096497	-16.092392
218.124802	945.873718	996.622375	942.084167	-7.467293
218.501236	947.582581	991.792725	941.786926	-13.109331
218.877609	948.845703	987.706055	942.232727	-17.017282
219.253983	945.279236	992.684326	941.341125	-8.307358
219.630295	943.198730	996.845276	942.009949	-2.215952
220.006592	940.078064	999.817383	933.093567	-11.691625
220.382889	943.718933	993.204529	936.362976	-14.864845
220.759140	943.941711	999.668762	938.443359	-9.866576
221.135391	941.266846	1003.383972	942.158508	1.435454
221.511581	940.523926	1006.058838	944.610535	6.235774
221.887772	937.774597	1001.080566	944.238953	10.211289
222.263931	947.285400	1001.377747	948.771484	2.747309
222.640060	950.257507	1006.727600	953.006653	4.868321
223.016159	942.975830	1017.575745	955.681580	17.031855
223.392212	931.161682	1031.098755	956.498840	25.353111
223.768265	925.886230	1035.482666	954.864258	26.440666
224.144302	935.025391	1030.504517	956.647461	22.645861
224.520294	945.204895	1028.349731	951.000488	6.970479
224.896286	940.969666	1025.749023	947.359680	7.537230
225.272217	935.545593	1028.869751	944.016052	9.076385
225.648148	928.263916	1027.458008	946.542297	18.426886
226.024048	940.449524	1026.714966	944.684753	4.909532
226.399902	940.226624	1025.526245	947.879822	8.972136
226.775772	952.486572	1022.108215	943.495911	-12.913602
227.151581	950.406067	1023.297119	943.644531	-9.276222
227.527374	953.749695	1036.300171	938.591980	-18.361753
227.903137	944.313293	1050.194580	940.895325	-3.228114
228.278870	943.198730	1067.432739	942.827209	-0.299049
228.654572	941.341125	1077.983887	947.359619	4.404546
229.030273	946.988098	1093.141724	952.932373	4.067142
229.405930	944.313232	1105.698853	951.966370	4.742143
229.781555	944.164734	1116.101196	947.062439	1.685335
230.157181	934.728271	1107.779297	942.529968	4.508322
230.532761	934.802551	1100.126099	939.929382	3.101089
230.908325	939.186462	1091.432739	936.734375	-1.610606
231.283859	952.412292	1098.937134	942.381348	-6.845901
231.659332	953.378235	1091.952759	953.675476	0.214499
232.034821	955.830261	1080.584473	958.207825	1.905798
232.410263	948.474304	1063.049072	949.365906	0.778183
232.785690	949.737366	1064.683716	935.545593	-12.346432
233.161087	953.229675	1065.946777	931.830383	-18.984957
233.536469	944.684814	1079.544312	930.864441	-10.247979
233.911804	941.638428	1086.900146	931.013000	-7.314678
234.287140	927.446594	1096.559570	933.613770	3.646778
234.662430	931.236023	1092.918701	937.254578	3.722449
235.037704	933.019348	1092.770142	935.248352	1.395301
235.412933	943.867493	1095.519287	932.573547	-7.447288
235.788162	943.867432	1103.543945	927.298035	-10.376853
236.163345	940.969727	1105.104370	937.328918	-2.218184
236.538513	933.242188	1107.036255	939.706543	3.719549
236.913635	931.384583	1105.104370	950.406189	10.949591
237.288742	935.174072	1116.026855	946.468079	6.244862
237.663834	940.003723	1121.005249	951.372070	6.280802
238.038879	952.412292	1125.389038	949.960266	-1.417547
238.413910	952.337952	1119.742065	960.437012	4.838029
238.788910	954.566956	1122.937012	954.715759	0.088379
239.163879	947.434021	1133.933838	959.099548	6.254981
239.538834	948.102722	1147.159790	954.938538	3.434098
239.913757	951.817871	1156.521851	959.173828	3.593461
240.288651	957.613525	1177.252319	956.796143	-0.372149
240.663528	957.539124	1208.831055	953.526855	-1.596656
241.038361	951.743469	1240.335327	950.926208	-0.283189
241.413177	942.084229	1274.291748	946.839539	1.431428
241.787979	939.112000	1304.978760	954.567078	4.224237
242.162735	938.963379	1350.080566	963.706299	6.018459
242.537476	940.300842	1370.959595	966.901367	6.176706
242.912170	945.130615	1392.581665	970.839417	5.745612
243.286865	947.879883	1387.826172	970.542175	5.151150
243.661514	950.257507	1374.526001	973.365662	5.446588
244.036148	948.177002	1349.114502	962.294617	3.521151
244.410751	950.331787	1335.665649	966.381165	4.165058
244.785339	949.440186	1335.739990	966.678406	4.462394
245.159882	948.102722	1354.835815	969.501892	5.261231
245.534378	940.449524	1388.792114	962.591736	4.938681
245.908890	943.273010	1452.246704	960.288330	3.343065
246.283356	937.774658	1525.286499	954.344177	2.820287
246.657791	949.737366	1614.375366	956.498962	1.017335
247.032196	946.245178	1687.340454	963.854919	2.376178
247.406586	955.978760	1730.213257	974.628845	2.408842
247.780960	949.365906	1735.191528	974.034424	3.139185
248.155289	951.520691	1709.482788	969.056091	2.313493
248.529602	950.480469	1670.622437	964.895203	2.001652
248.903870	948.325684	1612.369019	967.644287	2.909238
249.278122	945.650818	1546.239624	968.535950	3.810449
249.652344	934.951172	1485.980103	972.696960	6.850056
250.026550	934.059570	1440.804077	975.520447	8.181810
250.400711	939.780823	1427.652466	974.851746	7.188555
250.774857	944.387634	1432.110718	976.263489	6.535646
251.148987	945.353516	1455.961914	968.015930	4.438316
251.523071	941.564148	1478.401245	964.597961	4.290652
251.897125	944.833313	1497.645874	963.706299	3.413994
252.271164	938.889160	1509.831421	965.192383	4.606985
252.645187	941.861328	1518.896118	970.542175	4.970385
253.019165	937.477478	1520.456543	965.415222	4.792238
253.393112	946.319519	1507.750610	969.278992	4.089455
253.767044	942.530029	1478.995605	965.341003	4.252085
254.140930	951.594910	1452.618164	976.857910	5.042281
254.514801	953.452576	1438.128906	973.662842	4.169848
254.888657	948.325623	1438.054688	981.761902	6.827506
255.262466	941.861267	1437.683228	971.210876	5.919385
255.636276	939.483582	1458.785522	974.331604	6.710551
256.010010	950.108887	1480.630371	971.731018	4.075637
256.383759	953.303894	1518.078979	977.303711	4.249447
256.757446	953.006653	1542.524414	983.916687	5.243275
257.131134	945.279236	1587.403320	994.987793	7.741270
257.504791	943.644531	1634.882813	983.842285	5.815325
257.878418	938.369080	1718.473511	980.052917	5.343366
258.252014	946.542419	1810.905884	976.040527	3.412697
258.625580	948.920105	1923.771851	994.170410	4.641763
258.999115	948.845886	2053.801514	1006.653259	5.231647
259.372650	943.050110	2199.137695	1014.009277	5.649221
259.746124	934.876770	2346.554199	1025.451782	6.416126
260.119598	933.910889	2429.996338	1030.727295	6.471315
260.493042	930.344421	2442.924805	1024.708862	6.238640
260.866425	935.694153	2369.810791	1013.414856	5.419413
261.239838	945.427795	2264.152588	1002.343750	4.315984
261.613159	954.715637	2142.221924	999.000000	3.729190
261.986511	947.656921	2044.662231	997.068176	4.504194
262.359802	933.093567	1964.043823	992.387146	5.751352
262.733063	924.102844	1912.403442	986.665833	6.330360
263.106293	922.542542	1892.639038	976.189209	5.530034
263.479523	934.802490	1891.078491	979.384216	4.662014
263.852692	945.279236	1888.998047	983.619446	4.062673
264.225861	956.796082	1876.069336	986.517273	3.233118
264.598969	957.985046	1879.710327	987.260315	3.176138
264.972076	951.743591	1895.462524	985.551270	3.582388
265.345154	950.703308	1938.186523	992.833008	4.266371
265.718201	943.050110	1981.727905	991.495544	4.664145
266.091217	951.520691	2046.073853	993.427429	3.828661
266.464203	952.635254	2099.572021	999.594482	4.094317
266.837158	957.687805	2146.234131	1004.349854	3.925976
267.210114	943.050232	2188.364014	1009.179504	5.310250
267.583038	935.322754	2202.407227	1007.099121	5.664687
267.955902	931.236084	2214.146729	1001.749268	5.496344
268.328766	938.517761	2209.094238	1003.086731	5.081864
268.701569	944.090393	2240.747070	1003.458191	4.578528
269.074371	954.492737	2253.675781	1013.489075	4.541033
269.447144	958.430847	2295.656982	1017.055603	4.384057
269.819885	956.053040	2349.749268	1021.588074	4.702247
270.192596	951.149109	2461.872070	1019.136169	4.500300
270.565277	946.913879	2593.833740	1032.139160	5.174829
270.937927	946.096680	2723.194580	1041.724121	5.381102
271.310577	943.570313	2834.574219	1048.411255	5.544195
271.683136	943.718811	2899.366455	1043.210083	5.087382
272.055725	946.542297	2924.703857	1044.621948	4.958121
272.428284	945.056335	2897.508789	1046.702515	5.206077
272.800812	944.016113	2848.766357	1047.445435	5.430073
273.173279	943.867432	2788.878662	1045.662231	5.517300
273.545776	947.508301	2745.782471	1044.101807	5.371456
273.918152	946.690918	2701.720947	1039.495117	5.287898
274.290558	942.084167	2680.099121	1033.550903	5.262713
274.662964	936.065674	2668.953857	1032.584839	5.569844
275.035278	938.591980	2686.786377	1036.077026	5.576328
275.407593	940.746765	2705.436279	1040.089478	5.629473
275.779907	948.845764	2752.618408	1041.278320	5.124402
276.152161	949.440186	2802.252686	1040.906860	4.936640
276.524384	952.486572	2851.218018	1048.931519	5.079441
276.896606	955.755859	2884.951904	1054.652832	5.126331
277.268799	960.214050	2902.338623	1051.086304	4.679013
277.640930	958.950989	2919.205078	1036.894531	3.976196
278.013031	951.669250	2921.731689	1039.643677	4.465565
278.385162	952.263672	2929.087646	1038.306274	4.352568
278.757233	949.217285	2924.257813	1042.021362	4.698844
279.129272	945.427795	2951.824219	1037.786011	4.603189
279.501282	940.003723	2982.362549	1041.872681	4.987809
279.873230	937.328857	3051.241211	1050.566284	5.356770
280.245178	936.957336	3153.407471	1055.024292	5.326849
280.617126	941.118225	3289.901611	1068.844727	5.437985
280.988983	947.805481	3418.593750	1066.021240	4.784536
281.360870	948.399902	3522.171875	1074.937500	4.916426
281.732697	941.489746	3609.626221	1067.507202	4.723052
282.104492	939.557922	3654.059326	1080.361572	5.187090
282.476288	947.731201	3671.371826	1072.931274	4.596791
282.848053	951.446472	3645.217041	1083.482300	4.901525
283.219757	946.170898	3646.926514	1079.990112	4.954881
283.591461	938.889221	3623.000732	1082.516235	5.351007
283.963135	935.545593	3647.966553	1077.686646	5.240376
284.334747	936.511536	3693.439697	1072.708374	4.940166
284.706360	941.415466	3796.200439	1077.240845	4.757815
285.077942	941.341125	3900.744385	1082.219238	4.760355
285.449524	942.827148	3994.365479	1093.438843	4.935599
285.821014	937.551758	4013.238525	1093.661621	5.075610
286.192535	940.672424	4041.844971	1095.073486	4.978796
286.563995	939.260742	4038.501221	1091.878540	4.924361
286.935425	944.833496	4026.464600	1092.026978	4.776480
287.306824	941.415527	3942.725342	1093.661743	5.072659
287.678223	946.245178	3860.175049	1092.844360	5.030978
288.049561	941.192566	3814.255859	1095.445068	5.368921
288.420898	947.582581	3816.262451	1090.317993	4.975648
288.792145	947.062500	3859.803711	1098.268555	5.191194
289.163452	947.285339	3949.784180	1103.321167	5.196866
289.534668	947.062500	4066.662109	1109.042480	5.192332
289.905914	950.480408	4185.769531	1110.082642	4.933167
290.277039	953.675476	4286.598145	1116.175537	4.875603
290.648193	948.028503	4344.703125	1120.484985	5.077215
291.019318	944.981995	4340.541504	1116.621338	5.054818
291.390381	945.279114	4273.149414	1105.698730	4.820489
291.761475	946.245117	4201.075684	1108.893677	4.997144
292.132507	944.016113	4153.150391	1102.800903	4.947901
292.503510	945.427917	4142.599609	1109.116699	5.119800
292.874481	942.455750	4186.289551	1106.962036	5.071354
293.245422	942.604309	4271.960938	1110.008301	5.028118
293.616364	944.759094	4423.389160	1119.444946	5.021685
293.987213	947.136780	4551.487793	1124.348755	4.916613
294.358093	949.514465	4673.121094	1137.054565	5.036518
294.728943	946.468079	4790.147949	1135.345581	4.913976
295.099731	948.177002	4916.536621	1142.255737	4.890654
295.470490	948.251282	5031.260254	1146.416748	4.853417
295.841248	948.251282	5131.865723	1152.658203	4.885893
296.211975	950.406067	5253.351074	1158.156494	4.828099
296.582642	949.217224	5394.080566	1165.661011	4.869526
296.953308	947.656921	5448.470215	1177.103638	5.097894
297.323883	946.245117	5428.928223	1181.264648	5.242832
297.694519	947.433899	5309.375488	1182.899292	5.398179
298.065063	953.080994	5172.509766	1166.106812	5.048688
298.435608	949.440125	4995.817383	1150.577515	4.970802
298.806122	947.805481	4803.521973	1134.528198	4.842750
299.176575	946.393738	4638.272949	1129.401367	4.957032
299.547028	947.508240	4519.982910	1122.862793	4.908490
299.917450	946.319397	4482.831543	1129.475708	5.179010
300.287872	935.917053	4463.513184	1122.714233	5.295311
300.658234	944.090393	4461.507324	1123.754395	5.107839
301.028564	947.062500	4433.717285	1115.729614	4.837505
301.398865	961.625793	4400.801270	1123.308472	4.701205
301.769135	959.916809	4349.532715	1122.119629	4.785286
302.139374	962.368835	4297.817871	1125.760620	4.898644
302.509583	943.793213	4253.904785	1117.958740	5.261621
302.879791	942.084229	4194.091309	1111.717285	5.216257
303.249939	939.780945	4149.955078	1103.692505	5.106002
303.620087	945.279236	4112.061035	1109.859741	5.197090
303.990173	943.570251	4105.076660	1115.283936	5.431388
304.360260	949.588806	4109.757813	1113.872192	5.198564
304.730286	961.328613	4096.903809	1096.336792	4.305691
305.100281	963.186218	4092.371094	1095.222046	4.219496
305.470276	957.241943	4081.002930	1096.856812	4.469448
305.840179	950.926270	4098.389648	1106.961792	4.957501
306.210144	940.969666	4114.141113	1106.515991	5.217062
306.579987	937.551758	4164.518555	1106.738892	5.242915
306.949890	935.768494	4215.416504	1106.664795	5.210813
307.319702	942.455750	4316.690918	1115.283936	5.121996
307.689484	942.455750	4413.210449	1127.841064	5.341355
308.059265	941.415527	4528.973633	1137.128906	5.455337
308.429016	936.065674	4609.443848	1136.088501	5.445201
308.798737	940.152283	4686.867188	1134.676880	5.191871
309.168396	937.403076	4733.157715	1130.664551	5.091516
309.538055	943.198730	4751.138672	1130.664551	4.923025
309.907684	935.322693	4746.160645	1128.138184	5.059661
310.277313	940.449524	4768.228516	1134.231079	5.062506
310.646851	938.443359	4769.640625	1138.243408	5.215081
311.016388	950.777588	4777.888184	1142.552856	5.010968
311.385895	953.675476	4715.770996	1135.196899	4.825008
311.755371	954.418457	4668.068848	1123.011353	4.539816
312.124817	947.954102	4589.679199	1117.438721	4.653965
312.494232	947.359619	4521.767090	1119.816284	4.824762
312.863617	950.034485	4490.336426	1127.989624	5.026553
313.232971	950.926208	4503.710449	1129.104004	5.015160
313.602295	950.851868	4584.254395	1130.292969	4.938652
313.971619	946.988098	4663.312988	1135.419800	5.070377
314.340820	948.548523	4695.782715	1133.785278	4.943293
314.710083	939.929382	4701.727051	1134.899780	5.182905
315.079285	944.461853	4630.322754	1128.955444	5.005441
315.448486	942.678711	4555.351563	1126.503540	5.088333
315.817596	947.879883	4429.110840	1111.940186	4.712709
316.186707	949.143005	4330.585449	1104.212769	4.585906
316.555786	949.365784	4235.923828	1098.491333	4.537438
316.924866	949.440186	4177.967773	1103.841187	4.782397
317.293884	946.616699	4171.131836	1107.779297	4.998041
317.662872	944.090393	4200.704102	1100.274780	4.795914
318.031830	949.291565	4228.864746	1104.361328	4.728352
318.400757	947.136719	4263.341309	1102.206543	4.676124
318.769684	948.920105	4288.604492	1108.596558	4.781184
319.138550	945.502136	4308.071777	1105.104370	4.746437
319.507416	949.811707	4268.319824	1106.441772	4.719894
319.876190	946.319519	4207.688965	1105.104370	4.868656
320.244995	948.697205	4145.051270	1105.030151	4.890977
320.613770	944.239014	4106.265625	1096.931030	4.828929
320.982483	951.149170	4128.036133	1097.451294	4.605204
321.351166	944.313293	4168.977051	1100.200439	4.834214
321.719818	943.273010	4238.672852	1107.482056	4.982978
322.088440	939.483582	4345.000488	1113.277710	5.103312
322.457062	946.319519	4526.298828	1122.342651	4.916876
322.825623	953.452637	4688.204590	1136.905884	4.912060
323.194183	950.926270	4807.237793	1145.673584	5.050093
323.562653	948.325684	4865.639648	1144.336060	5.003693
323.931183	941.638367	4896.549316	1143.816040	5.112066
324.299591	946.096497	4864.450684	1139.209351	4.928417
324.668060	941.266907	4803.076172	1135.940063	5.040983
325.036407	946.616699	4715.473633	1125.909058	4.757208
325.404755	944.759094	4634.112305	1122.268311	4.811391
325.773102	952.709473	4552.973633	1112.534668	4.439263
326.141388	946.096497	4493.828613	1117.364258	4.827528
326.509674	941.638367	4417.816406	1113.723511	4.950412
326.877899	937.180176	4319.662598	1114.763672	5.250093
327.246124	940.598145	4250.561035	1102.800903	4.900440
327.614288	948.920105	4231.094238	1100.646118	4.622729
327.982422	947.062500	4242.537109	1110.082642	4.946788
328.350525	947.136780	4247.664063	1116.546997	5.132823
328.718628	939.186340	4262.152832	1116.101196	5.324004
329.086700	939.409241	4317.879395	1104.509888	4.886847
329.454712	945.725037	4383.637207	1105.327271	4.642417
329.822693	956.721863	4419.451660	1108.150635	4.373104
330.190674	958.728027	4453.110840	1114.243530	4.450443
330.558563	946.319519	4492.714355	1111.791626	4.665925
330.926483	947.062500	4585.963867	1117.810181	4.692286
331.294312	946.393799	4681.070801	1126.354858	4.818651
331.662231	952.338074	4791.336426	1127.840942	4.571580
332.029999	946.096619	4880.945801	1131.556152	4.713256
332.397766	944.759094	4969.589355	1129.401245	4.587576
332.765503	939.409363	5005.699707	1139.580811	4.922704
333.133240	942.752930	5024.201660	1147.085327	5.006369
333.500916	941.043945	4995.594727	1145.376465	5.039585
333.868561	951.372009	4994.034668	1138.986450	4.640863
334.236176	946.690979	4963.125000	1129.029907	4.539821
334.603790	954.789856	4949.973145	1134.156860	4.489581
334.971344	953.303894	4921.217773	1132.744995	4.522304
335.338867	950.628906	4915.645020	1134.676880	4.641797
335.706360	943.644531	4890.605469	1128.881226	4.693147
336.073853	944.387512	4904.128418	1133.265015	4.769946
336.441284	940.152344	4920.251953	1147.531250	5.210395
336.808655	932.647766	4952.351074	1152.732544	5.475150
337.176086	926.852234	4985.489746	1151.989380	5.547112
337.543396	934.208191	5012.164063	1142.404419	5.105407
337.910706	943.421692	5028.362305	1141.066895	4.838386
338.277954	944.313293	5015.879395	1141.661255	4.846979
338.645264	938.591980	4979.768066	1132.967896	4.809885
339.012421	940.969543	4918.468262	1134.082520	4.855136
339.379669	940.821045	4836.810059	1131.036133	4.882331
339.746796	940.077942	4750.023926	1128.658325	4.949687
340.113953	939.706543	4709.603516	1121.302368	4.816997
340.481018	945.873718	4698.458008	1127.172241	4.831298
340.848114	956.573242	4698.681152	1135.642700	4.785256
341.215118	952.412292	4725.875977	1142.552856	5.038887
341.582153	951.743652	4835.472656	1143.444458	4.935998
341.949066	950.629089	5028.361816	1153.549683	4.976309
342.316010	955.235840	5248.595703	1162.540405	4.828493
342.682922	948.845764	5487.775879	1176.212036	5.009248
343.049835	946.245117	5788.182129	1177.623779	4.778638
343.416656	948.622864	6105.306152	1195.828003	4.793879
343.783478	950.703308	6354.071777	1201.177734	4.635523
344.150269	949.365784	6494.131348	1215.889771	4.806767
344.516998	942.084167	6508.248535	1211.505859	4.840347
344.883728	936.957214	6431.939941	1206.973511	4.913870
345.250427	938.814880	6294.035156	1193.673218	4.759064
345.617065	941.489746	6153.974609	1185.797119	4.686965
345.983704	952.337952	6034.941406	1173.388550	4.349161
346.350281	954.344238	5908.478027	1170.342163	4.359953
346.716827	954.567078	5764.553223	1166.849976	4.413378
347.083405	952.858093	5652.653809	1165.066528	4.515269
347.449860	947.434021	5579.911621	1167.964355	4.760527
347.816376	947.211121	5558.140625	1170.713501	4.847230
348.182770	938.963562	5562.004395	1179.704224	5.207409
348.549194	942.084290	5605.768066	1179.778564	5.096707
348.915558	939.260742	5680.220215	1179.481323	5.066919
349.281921	941.935547	5740.554199	1180.595825	4.973520
349.648193	944.090332	5793.160156	1179.704224	4.858950
350.014526	949.142883	5824.590332	1174.651733	4.625398
350.380737	953.972595	5859.884277	1173.091309	4.466422
350.746948	955.384277	5895.549316	1177.846680	4.503137
351.113159	954.938477	5965.988281	1189.289429	4.676684
351.479309	949.068665	6017.554688	1190.923950	4.771746
351.845428	946.913879	6120.611816	1188.546265	4.670400
352.211517	945.650696	6239.347656	1196.125122	4.731560
352.577576	941.341125	6395.606934	1192.632935	4.607253
352.943604	941.935547	6534.924316	1200.137451	4.616528
353.309601	940.003723	6676.099121	1201.623657	4.560941
353.675537	947.062500	6845.063965	1221.610962	4.654941
354.041473	944.016052	7004.963379	1232.905151	4.766402
354.407379	940.152344	7114.039551	1239.146484	4.842883
354.773254	943.718811	7263.610840	1253.041138	4.894424
355.139038	943.347412	7453.751465	1258.613770	4.842501
355.504913	952.560852	7736.993652	1269.833496	4.676480
355.870636	952.412292	8008.125000	1276.520630	4.593559
356.236389	947.508301	8272.122070	1294.427612	4.736350
356.602081	944.164734	8528.095703	1313.894897	4.875178
356.967804	936.808777	8681.752930	1326.377808	5.029978
357.333405	944.981995	8781.690430	1330.315796	4.917037
357.699036	942.529968	8778.495117	1327.195190	4.908970
358.064606	949.514465	8757.020508	1320.285034	4.748899
358.430176	946.170837	8710.506836	1316.718628	4.772434
358.795654	951.743469	8745.280273	1312.037354	4.622983
359.161163	946.616699	8907.781250	1319.541992	4.684306
359.526581	955.235779	9244.223633	1336.408691	4.598546
359.892029	956.870422	9737.148438	1365.015259	4.648427
360.257416	960.511230	10313.737305	1386.488770	4.554338
360.622772	953.006653	10798.042969	1403.429688	4.575128
360.988098	953.378235	11146.746094	1416.581421	4.544162
361.353394	955.607239	11263.327148	1425.646362	4.560069
361.718658	954.715637	11145.260742	1421.782593	4.583336
362.083893	947.359619	10737.783203	1395.702515	4.579402
362.449097	940.003662	10146.184570	1370.365112	4.674701
362.814209	938.591980	9479.021484	1342.724365	4.731991
363.179382	942.158508	8838.532227	1318.947510	4.771671
363.544434	942.307129	8367.155273	1297.325439	4.781489
363.909546	942.678711	8073.436035	1275.109009	4.661922
364.274536	942.530090	7918.143066	1267.381470	4.656958
364.639587	940.746765	7791.011230	1263.294922	4.708550
365.004517	939.855164	7702.442871	1268.273071	4.856394
365.369507	934.059509	7632.672363	1271.765503	5.041432
365.734344	940.821045	7603.620605	1271.319580	4.960355
366.099274	942.381348	7603.100098	1271.245239	4.937364
366.464081	943.867493	7588.610840	1260.917114	4.771435
366.828918	942.232727	7549.750488	1258.911011	4.792697
367.193665	953.006653	7458.507324	1253.709839	4.622292
367.558411	959.099548	7378.929199	1255.493164	4.616846
367.923126	957.464844	7281.443848	1250.886230	4.639822
368.287781	949.365906	7236.193359	1249.920410	4.780702
368.652435	944.907715	7197.927734	1239.592285	4.712676
369.017059	943.273132	7211.228027	1237.586060	4.695518
369.381653	940.598145	7239.166016	1233.648071	4.652644
369.746185	945.279297	7286.645996	1241.078369	4.664595
370.110687	943.495911	7381.604004	1249.177368	4.748002
370.475220	941.564148	7482.284668	1256.161743	4.809831
370.839661	938.368958	7572.710938	1266.861450	4.951396
371.204041	942.381348	7608.970215	1262.477539	4.801499
371.568451	940.598145	7596.784668	1267.158569	4.906119
371.932770	935.842773	7578.208984	1259.059692	4.865991
372.297150	936.288635	7532.884277	1257.053345	4.862579
372.661377	948.102783	7517.652344	1251.629395	4.620204
373.025696	949.068665	7539.273926	1250.366211	4.571899
373.389862	946.765198	7612.388184	1252.892456	4.592628
373.754059	940.820984	7737.439453	1256.458862	4.644043
374.118225	940.523743	7880.472656	1267.530029	4.711941
374.482361	938.071838	8051.591797	1281.276001	4.824674
374.846436	940.226624	8258.375977	1294.056152	4.834959
375.210510	943.570313	8544.664063	1317.238647	4.915981
375.574524	945.947937	8857.776367	1332.470703	4.885378
375.938538	944.164551	9156.471680	1346.811035	4.902965
376.302460	944.313232	9400.408203	1344.433472	4.731738
376.666412	944.164734	9567.366211	1358.773804	4.808064
377.030304	939.483643	9577.843750	1357.064941	4.834034
377.394196	933.613770	9467.429688	1357.510742	4.967261
377.757996	933.836609	9245.413086	1334.996948	4.826526
378.121796	933.093567	8973.540039	1321.696899	4.833107
378.485565	942.678711	8685.393555	1306.613403	4.700350
378.849304	940.003723	8439.749023	1294.279053	4.723832
379.212982	941.118347	8288.988281	1289.078003	4.735517
379.576630	944.536194	8192.618164	1291.455566	4.786361
379.940277	950.108887	8175.527832	1294.427734	4.765382
380.303864	950.331787	8154.277344	1298.068481	4.827031
380.667450	946.913818	8180.208984	1297.771362	4.850591
381.030945	949.217285	8202.351563	1302.229492	4.867030
381.394501	948.697083	8255.032227	1293.015991	4.712608
381.757935	944.907715	8310.982422	1287.666016	4.653202
382.121399	936.808777	8370.721680	1281.350464	4.634728
382.484741	930.790222	8517.692383	1297.548340	4.834095
382.848145	925.663269	8667.709961	1306.093262	4.913817
383.211487	931.310364	8822.185547	1320.285034	4.929424
383.574768	942.381409	8907.782227	1316.792847	4.700472
383.938019	948.251282	8948.128906	1313.226318	4.562258
384.301270	940.598145	8967.892578	1308.322388	4.580924
384.664459	935.916992	8980.747070	1310.551392	4.656834
385.027649	938.666260	9009.502930	1321.770996	4.746778
385.390778	941.118225	9095.916992	1329.052734	4.757132
385.753876	945.576355	9201.128906	1340.049438	4.778276
386.116943	939.186340	9310.427734	1341.386963	4.804552
386.479980	948.622803	9359.838867	1342.947266	4.688079
386.842987	947.582581	9389.783203	1336.854614	4.611026
387.205994	943.347351	9392.606445	1338.192017	4.673128
387.568909	936.065674	9378.934570	1344.136108	4.833315
387.931793	941.638367	9323.653320	1346.736694	4.832947
388.294678	951.372009	9272.979492	1343.467407	4.711775
388.657471	955.458679	9272.534180	1336.557373	4.582124
389.020294	949.811707	9338.885742	1340.866943	4.661483
389.383057	948.622864	9529.843750	1354.910034	4.734608
389.745819	944.536316	9737.222656	1362.191772	4.750032
390.108521	945.427917	9988.514648	1386.117188	4.873217
390.471191	940.300964	10243.075195	1399.045898	4.931270
390.833801	942.604309	10471.556641	1421.559570	5.026316
391.196442	941.341125	10614.812500	1411.528809	4.860589
391.558960	944.684753	10648.917969	1407.590820	4.770145
391.921509	947.805420	10592.448242	1397.857056	4.666338
392.284027	946.468079	10546.899414	1398.897095	4.712590
392.646484	945.650696	10492.510742	1402.909668	4.789627
393.008911	939.260742	10477.500977	1403.801270	4.870296
393.371307	944.981995	10477.426758	1403.949829	4.814797
393.733673	943.718933	10461.674805	1399.417358	4.787776
394.096008	946.393799	10400.226563	1399.045898	4.788027
394.458344	942.975891	10280.004883	1400.457642	4.899650
394.820587	949.885986	10041.566406	1394.141968	4.886401
395.182831	949.514465	9812.491211	1381.436157	4.873325
395.545013	945.947937	9551.838867	1367.987305	4.904076
395.907196	944.610352	9423.219727	1363.232056	4.937387
396.269287	950.777588	9333.611328	1367.244263	4.968089
396.631409	946.542297	9296.311523	1377.943970	5.166630
396.993469	942.158508	9239.247070	1376.978027	5.240627
397.355530	938.963440	9228.472656	1382.253540	5.347604
397.717499	946.765320	9283.678711	1380.321655	5.200442
398.079468	944.016052	9333.684570	1383.590942	5.239479
398.441376	941.935547	9338.514648	1380.841797	5.227203
398.803284	940.523865	9262.725586	1384.036743	5.329273
399.165131	946.839600	9223.493164	1391.838501	5.376556
399.526978	945.279236	9193.401367	1394.439087	5.445601
399.888763	950.554688	9201.054688	1389.089233	5.315248
400.250519	954.641418	9189.537109	1387.380371	5.254941
400.612244	957.093445	9229.883789	1395.404907	5.298230
400.973938	954.344238	9325.437500	1409.819824	5.441052
401.335602	950.703308	9437.485352	1423.417114	5.570001
401.697205	950.926270	9618.264648	1431.441895	5.543982
402.058807	952.115051	9773.185547	1438.054688	5.508851
402.420349	948.102722	10014.966797	1445.336426	5.484076
402.781860	944.536133	10199.832031	1466.215454	5.636549
403.143341	935.396973	10397.551758	1480.110229	5.756757
403.504822	935.174133	10601.883789	1494.896484	5.790205
403.866241	937.403137	10754.798828	1507.527954	5.807292
404.227631	944.759094	10866.475586	1528.406860	5.882528
404.588959	951.000488	10870.934570	1542.004395	5.957741
404.950287	948.622803	10832.370117	1537.694824	5.960007
405.311554	943.718811	10743.653320	1536.283203	6.046616
405.672821	944.090332	10606.192383	1534.276978	6.108264
406.034027	946.765198	10480.398438	1533.311157	6.152387
406.395203	945.873535	10290.628906	1526.623901	6.214719
406.756348	946.468018	10178.135742	1525.954956	6.277164
407.117493	945.353516	10099.522461	1522.536987	6.305143
407.478516	948.028503	10157.256836	1521.496704	6.227104
407.839600	944.090332	10241.218750	1523.502930	6.232167
408.200592	942.455750	10379.643555	1542.004395	6.353044
408.561554	948.399902	10513.241211	1554.635742	6.338169
408.922485	950.406067	10646.836914	1567.787476	6.367100
409.283417	953.972656	10763.788086	1569.793579	6.277599
409.644257	950.851990	10871.899414	1583.316772	6.374979
410.005096	944.387695	10960.096680	1591.861450	6.464582
410.365906	936.437256	10962.252930	1597.508423	6.593690
410.726715	935.322693	10912.097656	1597.137085	6.633550
411.087433	943.793152	10807.850586	1597.359741	6.625738
411.448120	953.155273	10724.112305	1595.502319	6.574044
411.808807	951.446350	10684.359375	1593.273315	6.594398
412.169434	948.399963	10650.106445	1592.455933	6.638585
412.530029	947.656921	10696.843750	1601.892212	6.710665
412.890564	950.108887	10788.979492	1604.121460	6.647232
413.251099	951.892090	10949.101563	1606.127563	6.544181
413.611572	955.755859	11111.378906	1616.083984	6.502094
413.972076	961.551514	11242.670898	1627.600952	6.478375
414.332489	960.659912	11372.329102	1640.678345	6.531311
414.692871	957.019043	11589.812500	1662.374634	6.633775
415.053223	956.350281	11770.813477	1673.371582	6.630207
415.413574	954.864258	12042.762695	1694.622070	6.671759
415.773834	949.663086	12268.418945	1690.907104	6.548812
416.134094	946.616638	12584.875000	1716.244263	6.612910
416.494263	945.353516	12864.995117	1737.123413	6.642565
416.854462	946.245117	13202.032227	1776.726563	6.776239
417.214630	942.232727	13621.694336	1802.806763	6.787149
417.574738	937.031555	14046.929688	1826.286499	6.783081
417.934784	946.096497	14532.793945	1842.781738	6.599730
418.294861	951.966492	15073.942383	1879.635864	6.568977
418.654846	958.728027	15709.229492	1932.687988	6.602894
419.014832	951.817871	16328.617188	1980.167358	6.687669
419.374756	944.164734	16987.978516	2027.646851	6.753271
419.734680	939.112122	17636.716797	2065.689697	6.746941
420.094543	941.935547	18214.494141	2099.051758	6.699159
420.454376	949.960266	18557.699219	2116.364502	6.624384
420.814148	951.817810	18772.732422	2120.376953	6.557234
421.173920	948.845703	18903.357422	2134.568604	6.604039
421.533691	950.108887	19041.632813	2145.714111	6.608649
421.893341	952.932434	19078.039063	2159.608643	6.657485
422.253021	950.108887	19040.517578	2158.568359	6.680112
422.612640	941.118225	18971.119141	2154.184570	6.728045
422.972260	938.666199	18970.525391	2162.729248	6.788335
423.331757	944.387512	19038.435547	2181.379150	6.836456
423.691315	947.062500	19210.595703	2191.781738	6.815326
424.050781	947.508301	19255.919922	2179.596191	6.729627
424.410248	945.056335	19130.052734	2158.196777	6.671106
424.769653	950.034607	18777.560547	2133.008057	6.635657
425.128998	951.817871	18347.939453	2117.181641	6.698987
425.488373	951.223450	17864.529297	2085.529053	6.706587
425.847656	943.273010	17420.867188	2055.139160	6.747746
426.206940	941.118347	16987.830078	2021.257202	6.731216
426.566193	939.334961	16589.865234	1985.888794	6.687018
426.925385	938.814758	16157.127930	1957.653687	6.694821
427.284576	943.941711	15738.208008	1930.384644	6.667738
427.643677	943.867432	15418.260742	1924.440430	6.774536
428.002777	948.102722	15202.262695	1916.712891	6.795280
428.361847	946.170898	15020.145508	1905.047485	6.813118
428.720856	955.012878	14801.250000	1886.694702	6.728773
429.079865	949.365906	14609.624023	1872.205688	6.755654
429.438812	945.502136	14534.800781	1864.106567	6.759763
429.797760	935.694153	14506.714844	1864.626831	6.844973
430.156616	943.198730	14431.445313	1864.552368	6.830789
430.515503	947.731262	14378.020508	1855.636108	6.760129
430.874268	955.161438	14377.129883	1850.360718	6.669657
431.233093	957.984924	14494.750977	1853.630005	6.616389
431.591827	949.217285	14630.055664	1864.552368	6.690636
431.950562	941.861328	14757.708008	1876.143677	6.762397
432.309204	939.632324	14874.289063	1890.484009	6.823647
432.667877	944.610535	15062.795898	1909.877319	6.837046
433.026459	945.353516	15205.012695	1916.118530	6.807772
433.385010	943.570251	15323.079102	1916.415649	6.765498
433.743561	952.115051	15314.980469	1917.901855	6.724193
434.102051	953.155334	15313.493164	1922.062866	6.747108
434.460510	955.978821	15321.147461	1917.010254	6.690012
434.818939	953.898438	15311.414063	1903.932983	6.616984
435.177338	957.539246	15312.304688	1905.864746	6.606346
435.535675	948.771484	15275.078125	1915.598511	6.748613
435.894012	945.576477	15270.992188	1921.691406	6.813868
436.252289	940.895325	15432.377930	1931.350586	6.834741
436.610535	948.399902	15547.249023	1930.533203	6.727470
436.968719	945.650696	15819.941406	1944.205078	6.713291
437.326935	943.941711	16064.992188	1958.173950	6.707419
437.685028	934.951111	16374.315430	1981.579224	6.778959
438.043152	941.564026	16605.841797	1997.628540	6.741865
438.401215	943.793152	16905.578125	2022.742798	6.759581
438.759277	951.669250	17293.958984	2050.680664	6.724954
439.117249	943.421692	17832.357422	2094.593750	6.816132
439.475250	944.759094	18226.085938	2118.593506	6.792502
439.833130	942.158508	18650.876953	2150.469238	6.823254
440.191071	937.997559	18815.529297	2149.280273	6.775447
440.548889	935.545593	18907.072266	2150.841064	6.762338
440.906708	936.065674	18778.156250	2140.958740	6.753094
441.264496	946.913879	18588.755859	2134.642822	6.732455
441.622223	944.313293	18341.105469	2118.741943	6.750834
441.979950	940.078064	18066.037109	2101.132080	6.779498
442.337616	930.567322	17807.687500	2089.838135	6.868889
442.695251	934.282410	17552.013672	2083.596924	6.916194
443.052887	941.564026	17462.330078	2075.200684	6.861890
443.410461	942.678650	17595.478516	2071.708496	6.779819
443.768005	943.421692	17828.568359	2085.454346	6.763535
444.125458	943.198730	18066.486328	2093.999268	6.720675
444.482941	944.536194	18389.404297	2126.543945	6.775677
444.840393	950.183289	18951.056641	2151.138184	6.671648
445.197754	953.155273	19488.339844	2187.695068	6.660521
445.555084	951.594910	19890.539063	2218.084717	6.687225
445.912415	947.954102	20109.583984	2241.044189	6.748331
446.269714	943.495911	20203.875000	2244.536377	6.755010
446.626953	943.273010	20201.943359	2236.883545	6.717030
446.984161	941.489807	19997.611328	2227.595703	6.749044
447.341309	940.078064	19771.435547	2229.378906	6.846563
447.698456	947.656921	19468.353516	2209.985840	6.815774
448.055542	955.310059	19274.273438	2187.471924	6.726155
448.412598	959.248108	18973.720703	2157.825195	6.653412
448.769653	948.399902	18602.578125	2137.689453	6.736590
449.126617	942.158508	18143.462891	2110.494629	6.792137
449.483582	941.935547	17794.089844	2093.850586	6.835417
449.840515	945.427795	17533.138672	2075.869385	6.814935
450.197388	944.684753	17330.664063	2057.813721	6.793180
450.554230	942.158508	17213.562500	2043.250488	6.767037
450.911041	942.752930	17150.183594	2021.925781	6.658507
451.267822	939.929382	17229.833984	2028.612915	6.683180
451.624573	938.294739	17250.712891	2037.083374	6.735902
451.981262	944.907715	17219.431641	2047.857300	6.777154
452.337921	945.502136	17049.576172	2032.179321	6.747840
452.694580	943.793152	16745.232422	2008.030884	6.735069
453.051147	946.542297	16515.117188	1998.371582	6.756105
453.407715	943.644531	16148.730469	1987.300415	6.863861
453.764221	952.486572	16046.489258	1992.204468	6.888285
454.120728	956.127441	15709.453125	1968.130371	6.859490
454.477142	959.619690	15639.237305	1966.792969	6.861032
454.833557	957.464905	15507.051758	1948.588867	6.812042
455.189911	943.867432	15551.187500	1949.926392	6.887362
455.546265	941.489746	15635.520508	1941.084351	6.802725
455.902557	936.511475	15721.711914	1950.669434	6.859278
456.258820	941.341125	15964.385742	1970.433960	6.850094
456.615051	948.548584	16227.046875	1999.783569	6.880486
456.971252	956.127441	16526.560547	2029.132935	6.891301
457.327393	948.994324	17047.943359	2061.603271	6.911065
457.683502	945.724915	17715.923828	2086.271729	6.801033
458.039612	941.341125	18654.367188	2137.317871	6.751962
458.395630	935.991394	19578.619141	2192.896240	6.742101
458.751648	940.375244	20374.699219	2266.084473	6.821484
459.107605	940.152344	21103.013672	2311.706299	6.802378
459.463562	953.972656	21389.970703	2336.597656	6.765635
459.819458	951.297668	21333.054688	2320.994141	6.720208
460.175323	950.703369	20759.437500	2278.938721	6.705301
460.531158	947.136719	20016.261719	2228.487061	6.719502
460.886932	944.684753	19235.341797	2190.741211	6.812530
461.242676	946.096497	18473.439453	2148.760498	6.861645
461.598419	943.347351	17931.623047	2110.940186	6.872933
461.954102	935.099792	17338.019531	2066.581543	6.898050
462.309723	928.783997	16953.353516	2040.501343	6.937580
462.665344	937.700378	16577.681641	2016.724487	6.899140
463.020905	944.238953	16404.853516	2004.835938	6.859992
463.376373	958.802246	16325.421875	1995.696655	6.747707
463.731873	953.378235	16316.581055	2002.606812	6.829491
464.087341	959.173828	16363.539063	2003.126953	6.776995
464.442749	949.811707	16507.240234	2010.557251	6.818258
464.798126	945.204895	16617.876953	2010.334473	6.796095
465.153503	941.564026	16815.300781	2027.721313	6.842480
465.508820	934.282410	16955.064453	2031.510742	6.848781
465.864105	943.867432	17100.029297	2044.959595	6.815308
466.219330	945.279114	17348.794922	2052.166992	6.747870
466.574524	950.851868	17400.062500	2055.362061	6.714670
466.929657	946.393799	17329.474609	2040.427124	6.677824
467.284790	943.198792	17106.789063	2024.452026	6.689437
467.639893	946.691101	16852.228516	2009.962891	6.684916
467.994934	944.684814	16641.357422	1997.331421	6.706177
468.349945	949.068665	16442.968750	1982.173828	6.667819
468.704926	942.604309	16296.073242	1973.628906	6.715256
469.059875	945.353516	16149.844727	1973.628906	6.762971
469.414764	947.731201	16040.471680	1974.892090	6.805662
469.769653	944.536133	16035.121094	1977.938477	6.847994
470.124451	944.981934	16119.678711	1975.412109	6.790450
470.479248	941.043945	16179.937500	1982.842407	6.836444
470.834015	947.805481	16238.933594	1993.318970	6.837386
471.188721	954.864258	16467.638672	2013.009277	6.821120
471.543365	963.408997	16763.808594	2024.377563	6.714821
471.898010	967.570068	17022.753906	2025.937988	6.592063
472.252625	959.619690	17248.931641	2038.792358	6.625035
472.607178	951.520691	17467.976563	2055.287598	6.682831
472.961700	949.217285	17573.634766	2066.804443	6.722564
473.316193	952.412292	17659.230469	2076.315186	6.727211
473.670654	955.607239	17621.189453	2074.011719	6.710864
474.025055	954.492676	17713.917969	2092.438721	6.789887
474.379456	950.480286	17710.277344	2089.986572	6.799047
474.733795	941.712646	17823.810547	2100.017822	6.861145
475.088104	936.362854	18084.539063	2106.556396	6.824012
475.442383	931.161621	18426.853516	2124.314941	6.819698
475.796570	941.043945	18730.750000	2142.519043	6.753766
476.150787	941.489807	19141.048828	2174.543457	6.775185
476.504944	942.158508	19518.582031	2210.357178	6.826926
476.859070	928.783997	19907.037109	2245.205078	6.936471
477.213135	932.201904	20156.619141	2257.316406	6.892872
477.567200	940.077942	20435.998047	2266.901611	6.805648
477.921173	952.040710	20737.517578	2277.452881	6.698914
478.275146	953.452454	20961.021484	2297.217285	6.716283
478.629089	953.303894	21223.978516	2319.285156	6.738707
478.983002	950.331787	21628.705078	2358.442627	6.809582
479.336823	949.440186	22210.494141	2386.083252	6.757158
479.690643	948.177063	22915.181641	2432.596680	6.757497
480.044403	942.901550	23770.927734	2476.732422	6.719069
480.398163	940.969727	24919.794922	2562.254883	6.761321
480.751862	938.963562	26546.431641	2670.811279	6.763057
481.105499	933.910889	28749.281250	2807.082764	6.734305
481.459137	933.687988	31930.033203	3019.142578	6.728066
481.812744	936.660095	36158.304688	3304.613281	6.723006
482.166290	938.963440	41197.144531	3656.734131	6.750854
482.519806	945.799316	46278.261719	4024.309570	6.790962
482.873291	945.130615	50529.937500	4359.489258	6.885897
483.226715	943.347351	53365.996094	4600.453125	6.976194
483.580139	938.220520	54440.343750	4705.591309	7.041535
483.933502	937.105957	53948.011719	4656.254395	7.015818
484.286804	945.279297	52114.074219	4488.478516	6.924531
484.640106	943.941711	49335.593750	4245.286621	6.822137
484.993347	942.084167	46346.988281	4001.052734	6.737089
485.346558	942.678650	44022.433594	3840.707764	6.727125
485.699738	941.489746	42977.363281	3770.120117	6.729086
486.052887	941.192566	43111.777344	3805.785156	6.792869
486.405975	941.341248	44054.082031	3882.242920	6.821421
486.759064	941.266846	45141.500000	3959.072021	6.827577
487.112061	940.226563	45756.800781	3990.055908	6.805137
487.464996	937.700195	45399.113281	3960.929688	6.799670
487.817963	938.443359	44189.984375	3876.001709	6.791801
488.170868	938.517639	42387.324219	3746.937744	6.775636
488.523743	940.300964	40328.992188	3592.685547	6.733873
488.876587	943.570313	38396.824219	3463.546875	6.728325
489.229401	946.022278	37088.503906	3379.956299	6.734275
489.582153	941.341125	36793.074219	3358.557373	6.742258
489.934845	942.901550	37403.617188	3404.104736	6.750288
490.287537	949.291504	38572.324219	3478.333252	6.722057
490.640198	954.121277	39794.753906	3569.800049	6.734387
490.992798	948.177002	40534.214844	3603.458984	6.707623
491.345337	935.025452	40517.050781	3596.251953	6.723321
491.697876	933.985168	39388.246094	3514.444580	6.710464
492.050354	938.591980	37463.433594	3385.974854	6.700598
492.402832	950.331787	34790.765625	3203.561768	6.658396
492.755219	949.588806	32058.802734	3027.389893	6.679053
493.107605	937.774658	29518.984375	2868.084961	6.753774
493.459930	932.350586	27653.617188	2749.943604	6.802047
493.812225	928.412598	26263.634766	2650.377930	6.796725
494.164490	937.923340	25478.478516	2596.582764	6.758851
494.516724	940.449646	25036.671875	2564.707031	6.740714
494.868896	952.263672	25048.041016	2559.951904	6.672075
495.221039	949.142883	25231.197266	2567.902100	6.666484
495.573120	944.090393	25424.384766	2587.889404	6.714785
495.925201	936.808655	25606.869141	2615.975830	6.806498
496.277222	945.725098	25755.923828	2630.167725	6.789315
496.629211	945.947937	25813.062500	2629.276123	6.769294
496.981140	944.981934	25770.041016	2617.313477	6.736465
497.333069	948.771423	25524.468750	2596.211182	6.703532
497.684967	953.155273	25218.789063	2572.434326	6.673138
498.036804	955.161438	24710.259766	2543.307617	6.685497
498.388580	936.734375	24182.416016	2505.859131	6.750177
498.740326	934.951172	23691.570313	2466.850342	6.731664
499.092072	936.288574	23206.892578	2437.797852	6.742113
499.443756	943.198730	22792.062500	2411.197510	6.718879
499.795410	946.096497	22417.578125	2394.256592	6.744575
500.147003	942.232849	22174.681641	2372.337402	6.735466
500.498566	936.957336	21946.794922	2351.384033	6.732212
500.850098	937.328796	21734.662109	2337.935303	6.734548
501.201599	941.192566	21592.816406	2321.960205	6.686000
501.553009	958.579407	21480.322266	2319.805420	6.633092
501.904449	956.944763	21462.935547	2306.356445	6.580573
502.255859	958.133606	21477.201172	2314.901367	6.612229
502.607178	951.223389	21625.808594	2328.944336	6.663838
502.958405	946.096497	21762.228516	2344.102295	6.715973
503.309692	937.997559	21839.427734	2357.402588	6.790947
503.660919	931.830383	21891.142578	2362.009033	6.823596
504.012115	935.025391	21826.054688	2375.532227	6.895337
504.363251	942.009827	21817.804688	2366.244385	6.822421
504.714294	937.180176	21687.478516	2362.677979	6.869770
505.065369	937.477356	21653.001953	2346.182617	6.800240
505.416443	934.579590	21522.748047	2340.906982	6.830755
505.767395	940.078064	21469.994141	2336.671875	6.802725
506.118317	946.096497	21372.285156	2335.185791	6.800531
506.469238	951.223450	21487.455078	2340.386963	6.764452
506.820160	957.836426	21663.031250	2340.609863	6.678389
507.170929	956.424622	21929.037109	2359.334229	6.689246
507.521729	955.310120	22177.056641	2375.160889	6.690547
507.872498	950.629089	22449.822266	2398.417236	6.734151
508.223236	946.765320	22777.869141	2422.640137	6.760422
508.573883	944.461914	23024.705078	2425.166260	6.706015
508.924500	952.486633	23268.937500	2439.135498	6.661673
509.275116	951.223450	23389.900391	2445.673828	6.660154
509.625702	954.121277	23507.001953	2470.416748	6.723289
509.976196	947.136780	23604.562500	2479.927734	6.765071
510.326660	947.731201	23788.982422	2484.980225	6.730144
510.677124	945.130615	24038.712891	2496.274170	6.716774
511.027557	941.712708	24202.921875	2508.311279	6.734812
511.377869	946.616699	24337.037109	2520.051025	6.726832
511.728180	951.892090	24410.748047	2521.760010	6.692006
512.078430	956.944763	24443.884766	2526.366943	6.682106
512.428650	957.019043	24360.072266	2519.531006	6.676530
512.778931	957.762024	24164.732422	2505.859375	6.670829
513.129028	957.390564	23929.787109	2491.221680	6.676844
513.479126	963.260437	23780.287109	2487.060791	6.678347
513.829285	962.517395	23662.443359	2495.159424	6.751750
514.179382	961.477234	23655.384766	2486.094727	6.718179
514.529297	952.486572	23648.921875	2470.119629	6.686658
514.879272	949.068665	23833.044922	2470.194092	6.647120
515.229187	954.418457	23983.281250	2481.710693	6.632078
515.579163	957.539124	24365.794922	2527.555664	6.707106
515.928955	953.898376	24819.412109	2551.852783	6.695663
516.278748	946.839539	25540.373047	2592.273438	6.690514
516.628540	944.313232	26317.654297	2635.219971	6.664107
516.978333	948.919922	27179.712891	2702.092529	6.683643
517.327942	948.697021	28061.312500	2767.256104	6.707428
517.677612	946.170837	28823.140625	2824.989502	6.739680
518.027222	947.285400	29289.833984	2856.419678	6.735930
518.376831	947.805603	29420.681641	2867.267578	6.741370
518.726379	943.421692	29180.312500	2841.707764	6.722717
519.075867	939.855164	28667.552734	2803.887451	6.722636
519.425293	939.409363	27982.775391	2759.082764	6.728724
519.774658	948.548523	27260.849609	2711.752197	6.701062
520.124084	951.892090	26661.154297	2676.086914	6.706512
520.473389	949.291504	26146.531250	2646.365967	6.735160
520.822693	947.211121	25780.000000	2628.607422	6.770872
521.171997	938.294739	25503.294922	2600.669434	6.767249
521.521240	940.672546	25393.771484	2586.626221	6.731063
521.870361	932.945007	25488.062500	2585.437500	6.729727
522.219482	939.112122	25747.601563	2611.889404	6.742762
522.568604	939.632263	26096.673828	2633.883057	6.734698
522.917664	946.319519	26545.166016	2661.151855	6.698865
523.266724	945.353516	27228.900391	2695.108398	6.657225
523.615662	950.331848	28112.359375	2762.798096	6.672795
523.964600	949.143066	29256.697266	2838.512451	6.674435
524.313538	951.520691	30470.656250	2914.672852	6.650439
524.662354	948.102722	31831.732422	2998.709229	6.639785
525.011169	948.251282	33104.984375	3092.330811	6.667592
525.359985	951.817871	34405.503906	3193.605469	6.701168
525.708740	955.978821	35728.613281	3280.613525	6.685242
526.057434	952.412292	37323.964844	3379.584961	6.673272
526.406067	952.337952	39398.050781	3499.212158	6.624599
526.754700	951.743591	42226.234375	3687.421143	6.628010
527.103333	955.235840	45508.558594	3925.858398	6.667567
527.451782	953.452454	48916.003906	4194.908691	6.758307
527.800293	950.629089	51457.234375	4422.200684	6.873500
528.148743	944.461853	52970.410156	4558.472168	6.946553
528.497131	935.545593	53012.093750	4574.075684	6.986888
528.845642	930.864441	51889.300781	4446.126465	6.898292
529.193909	934.653870	49550.843750	4239.787598	6.798422
529.542175	937.625977	46297.875000	3983.814697	6.715547
529.890503	943.124451	42734.097656	3736.014893	6.682999
530.238770	944.164734	39507.949219	3516.227783	6.669633
530.586914	943.570313	37240.667969	3354.619141	6.642539
530.934998	939.409363	35974.699219	3279.499268	6.679236
531.283142	938.443420	35896.164063	3262.335205	6.647722
531.631226	940.598145	36582.128906	3309.071533	6.645263
531.979248	939.409241	37805.593750	3380.699219	6.622031
532.327148	938.146179	38992.730469	3471.794678	6.657932
532.675110	934.802551	39865.636719	3539.484375	6.690537
533.023071	935.545593	40028.730469	3570.914307	6.741249
533.370850	940.152344	39415.660156	3520.983154	6.707724
533.718689	939.855164	38149.914063	3434.123047	6.703208
534.066467	947.879822	36562.585938	3309.740234	6.631700
534.414246	949.885986	34993.906250	3208.168701	6.633420
534.761963	948.102722	33734.777344	3123.835205	6.636026
535.109619	939.186340	33093.910156	3082.151123	6.664541
535.457153	934.059570	32803.167969	3076.281250	6.721938
535.804749	937.923279	32773.000000	3074.646484	6.711852
536.152344	940.969727	32645.718750	3068.627930	6.710850
536.499817	939.483582	32295.529297	3034.448486	6.681215
536.847229	947.359680	31663.958984	2988.678467	6.645654
537.194641	948.474182	30816.087891	2930.573486	6.636283
537.542114	957.613464	30017.187500	2887.032227	6.639528
537.889404	943.495911	29360.794922	2849.880859	6.708537
538.236694	944.313293	28962.458984	2831.230713	6.734626
538.583984	940.077942	29088.328125	2837.843750	6.742039
538.931213	951.669189	29883.367188	2891.267578	6.704060
539.278381	949.291504	31361.099609	2977.012939	6.667546
539.625488	948.399902	33340.300781	3102.138672	6.649004
539.972595	938.814941	35715.238281	3261.443359	6.678745
540.319641	938.294739	38063.351563	3431.596924	6.715955
540.666687	940.821106	39880.652344	3572.177734	6.757493
541.013611	948.177002	40975.203125	3641.947998	6.729880
541.360596	947.285339	41114.445313	3651.161377	6.731559
541.707458	941.266846	40525.152344	3599.075195	6.714369
542.054260	935.025452	39168.531250	3513.329834	6.743574
542.401062	933.985168	37541.300781	3385.232178	6.696058
542.747864	937.923279	35574.136719	3246.508789	6.665236
543.094666	935.619873	33633.273438	3107.414063	6.642049
543.441284	942.678650	31767.087891	2995.365479	6.659290
543.787903	947.136780	30317.666016	2903.824463	6.662078
544.134460	955.161438	29079.781250	2825.286377	6.649424
544.481079	948.102722	28238.822266	2773.794922	6.689791
544.827637	946.022217	27636.376953	2736.643555	6.708870
545.174072	941.638367	27362.572266	2716.804443	6.718786
545.520508	942.901550	27264.568359	2705.287842	6.695572
545.866943	938.443420	27214.263672	2701.275391	6.708951
546.213318	947.285400	27107.416016	2698.972168	6.696017
546.559631	953.229675	26766.591797	2672.297607	6.659605
546.905823	951.594910	26269.357422	2638.415283	6.662597
547.252136	944.387512	25521.427734	2580.013428	6.655097
547.598389	931.013123	24622.361328	2529.784668	6.748335
547.944458	931.458984	23647.806641	2459.642822	6.727242
548.290588	938.517761	22724.595703	2406.739258	6.739264
548.636658	949.737488	21853.767578	2344.399414	6.671737
548.982727	956.944763	21149.601563	2296.399902	6.633377
549.328735	954.864258	20608.824219	2251.966797	6.599700
549.674622	949.737366	20209.892578	2226.035156	6.626623
550.020569	940.746765	19945.228516	2218.604980	6.723983
550.366455	932.721985	19752.191406	2212.363525	6.799563
550.712280	934.802551	19740.449219	2201.143799	6.733836
551.058044	938.146179	19829.091797	2196.611328	6.661737
551.403748	944.536133	20020.570313	2206.122070	6.613460
551.749512	940.077942	20206.478516	2224.697754	6.667669
552.095154	933.762207	20323.279297	2242.158936	6.747959
552.440735	926.183350	20394.091797	2252.412598	6.812387
552.786316	937.254456	20343.638672	2241.564209	6.721035
553.131897	942.381348	20159.888672	2229.378662	6.697004
553.477417	955.310059	19839.345703	2202.481201	6.604368
553.822815	953.155273	19450.744141	2189.701416	6.684904
554.168213	954.567078	19094.908203	2164.141113	6.667868
554.513672	943.793213	18781.349609	2146.679932	6.743562
554.859009	933.465149	18501.824219	2129.887451	6.810097
555.204285	932.201965	18284.191406	2114.581055	6.814084
555.549500	934.430969	18056.230469	2094.593506	6.775939
555.894714	938.071838	17921.148438	2079.956055	6.723660
556.239990	937.923279	17789.111328	2067.993408	6.706175
556.585022	940.821045	17725.062500	2064.203857	6.693080
556.930115	943.867432	17634.931641	2061.677490	6.697057
557.275146	943.867432	17502.750000	2055.882080	6.715518
557.620178	941.266846	17419.455078	2051.572266	6.738031
557.965149	945.502136	17331.554688	2037.603516	6.664823
558.310059	949.737305	17275.457031	2031.436523	6.625737
558.654968	949.365906	17187.109375	2028.241577	6.644247
558.999756	944.610535	17210.144531	2023.932007	6.635635
559.344604	941.638367	17270.478516	2022.223022	6.617645
559.689331	946.170837	17314.912109	2018.730591	6.552488
560.033997	944.313293	17280.138672	2034.408569	6.673034
560.378723	945.799316	17316.767578	2042.730469	6.700466
560.723389	942.975830	17349.685547	2044.439453	6.713495
561.067932	945.650696	17430.525391	2039.386719	6.634786
561.412476	941.341125	17413.734375	2046.891479	6.711535
561.757019	940.523743	17409.500000	2052.315186	6.750823
562.101501	941.712708	17354.367188	2061.529053	6.822884
562.445862	945.947998	17267.359375	2046.073853	6.740385
562.790222	943.050110	17195.656250	2035.448730	6.721375
563.134644	947.062439	17156.126953	2021.851196	6.630789
563.478943	951.074768	17238.380859	2028.390015	6.614447
563.823181	953.824036	17366.626953	2042.135864	6.630871
564.167358	947.136780	17567.839844	2067.250244	6.739267
564.511536	942.307129	17866.982422	2088.798096	6.774079
564.855774	943.644592	18200.822266	2120.450928	6.819229
565.199768	948.102722	18592.695313	2140.067139	6.755409
565.543823	954.418457	18868.134766	2152.772705	6.689590
565.887817	957.687744	19097.505859	2160.351807	6.629968
566.231812	956.127441	19116.082031	2158.345459	6.620160
566.575745	954.492676	18985.978516	2156.265137	6.664855
566.919617	947.954102	18766.267578	2144.376709	6.714568
567.263428	947.210999	18525.896484	2129.516113	6.725788
567.607239	940.820984	18327.435547	2108.116943	6.713762
567.950989	945.650696	18099.027344	2086.940430	6.653441
568.294678	947.136780	17954.138672	2086.569092	6.699784
568.638367	949.960266	17808.800781	2089.615479	6.759986
568.981995	940.746765	17763.251953	2090.061035	6.832004
569.325623	941.638367	17754.708984	2072.674072	6.727121
569.669128	938.443359	17908.888672	2074.829102	6.696263
570.012573	947.062500	18117.083984	2092.736328	6.672524
570.356140	945.502136	18470.689453	2117.256104	6.686113
570.699524	951.000488	18773.029297	2135.163086	6.644376
571.042908	952.709473	19083.910156	2154.555908	6.628609
571.386230	954.567078	19249.753906	2168.599365	6.635801
571.729492	948.771423	19344.564453	2182.196533	6.704930
572.072815	951.000488	19327.326172	2181.156494	6.694243
572.416016	942.381348	19192.691406	2178.704346	6.774257
572.759094	947.359680	19036.359375	2172.165771	6.771000
573.102234	941.118347	18884.185547	2155.596436	6.768509
573.445374	949.365906	18716.261719	2141.255615	6.708485
573.788391	947.954102	18539.792969	2115.547119	6.637128
574.131409	944.387512	18413.404297	2102.098389	6.627224
574.474365	933.316406	18327.806641	2096.228271	6.685519
574.817261	932.127625	18293.033203	2103.510010	6.747242
575.160156	927.669434	18135.289063	2100.983643	6.818574
575.502930	934.133789	17941.431641	2087.609131	6.782238
575.845703	933.613708	17622.673828	2067.250244	6.792692
576.188477	944.981995	17317.289063	2047.559937	6.734408
576.531250	947.656921	16996.376953	2020.959595	6.687778
576.873901	955.087158	16633.332031	1992.056030	6.614062
577.216431	951.000549	16290.351563	1968.724976	6.634729
577.559082	947.062500	15942.762695	1949.480591	6.684703
577.901611	936.585754	15631.062500	1927.041016	6.740324
578.244080	940.672424	15331.178711	1915.598511	6.774787
578.586487	941.415466	15097.050781	1898.508789	6.761218
578.928955	973.811523	14948.000000	1895.462402	6.595380
579.271301	968.833191	14784.979492	1868.713501	6.513251
579.613647	970.244934	14586.144531	1867.970337	6.593214
579.955872	946.170837	14415.991211	1847.314453	6.690094
580.298157	953.378174	14272.661133	1841.667358	6.669197
580.640320	957.093262	14192.487305	1832.750977	6.616030
580.982483	955.384460	14112.464844	1830.596069	6.652020
581.324524	953.749756	14060.229492	1831.487671	6.696977
581.666626	955.755920	13982.137695	1818.187500	6.620653
582.008728	947.508301	13916.973633	1813.135132	6.674345
582.350647	944.684753	13832.492188	1815.810059	6.759298
582.692566	946.765320	13764.579102	1808.230957	6.720847
583.034424	947.731201	13696.442383	1795.896851	6.652952
583.376343	949.217285	13628.753906	1781.853516	6.566772
583.718201	941.935547	13613.297852	1785.717285	6.658966
584.059937	939.855042	13518.934570	1790.175415	6.759798
584.401611	940.746765	13474.129883	1782.596558	6.716860
584.743347	939.260681	13382.366211	1780.516113	6.760816
585.085022	949.217285	13357.176758	1777.692505	6.676966
585.426514	948.028503	13327.531250	1787.426392	6.780546
585.768127	948.771484	13343.950195	1793.370483	6.813931
586.109619	939.855164	13371.518555	1790.918579	6.845934
586.451172	942.455750	13371.071289	1781.259277	6.748970
586.792542	946.616699	13392.024414	1776.206665	6.665832
587.133850	944.981995	13438.389648	1780.441772	6.687205
587.475220	938.814880	13487.503906	1786.237305	6.753075
587.816589	937.551758	13516.333008	1789.729614	6.774725
588.157776	939.409363	13585.434570	1794.262085	6.759853
588.498962	947.062500	13722.523438	1801.840820	6.690783
588.840210	947.062439	13850.918945	1802.138184	6.626513
589.181335	951.966370	13966.312500	1808.453979	6.581104
589.522400	952.040710	13993.655273	1800.206421	6.503533
589.863403	948.325623	13992.167969	1799.909180	6.528625
590.204407	945.576416	13905.606445	1793.221802	6.540458
590.545410	937.774597	13810.202148	1798.200195	6.684253
590.886353	941.341125	13648.666992	1790.992798	6.686314
591.227112	947.954102	13518.042969	1788.838013	6.689562
591.567932	955.012878	13432.743164	1776.429565	6.583062
591.908752	949.885986	13406.440430	1766.844360	6.558462
592.249512	951.966492	13420.409180	1773.606079	6.589753
592.590149	941.786926	13430.809570	1782.522339	6.731795
592.930786	953.601074	13542.265625	1793.890625	6.674970
593.271423	945.799316	13646.437500	1791.958618	6.662337
593.612000	949.885986	13801.284180	1803.698608	6.643733
593.952576	942.752991	13899.809570	1817.741699	6.752990
594.292969	947.805481	14018.174805	1825.023438	6.711501
594.633484	949.291687	14200.364258	1826.063477	6.616610
594.973877	938.814941	14471.273438	1837.357544	6.639906
595.314209	933.465149	14800.582031	1857.345093	6.662379
595.654480	939.037842	15118.374023	1881.419067	6.646159
595.994812	948.920105	15400.500977	1899.771973	6.579570
596.335022	948.771484	15602.233398	1910.471680	6.562955
596.675171	938.889160	15615.905273	1920.874023	6.690630
597.015320	933.762390	15518.047852	1919.833618	6.761190
597.355408	931.161682	15217.198242	1913.815308	6.878420
597.695496	932.721985	14866.191406	1887.214844	6.850360
598.035461	932.350525	14392.066406	1851.549438	6.829259
598.375366	936.139893	13952.640625	1810.237305	6.715302
598.715271	937.328796	13574.809570	1777.098145	6.645070
599.055176	948.028320	13233.018555	1753.915649	6.559935
599.395081	948.845703	12995.620117	1750.423462	6.653879
599.734802	949.811584	12780.067383	1738.460815	6.666375
600.074524	946.319397	12671.734375	1740.095337	6.769704
600.414246	943.941711	12611.176758	1725.978027	6.702842
600.753906	941.712708	12626.855469	1731.847778	6.761878
601.093506	937.328918	12686.223633	1727.835571	6.728349
601.433044	937.923340	12810.308594	1736.380371	6.725330
601.772583	939.260742	12988.190430	1744.553711	6.683523
602.112122	941.118164	13276.929688	1766.175781	6.688313
602.451538	941.489685	13623.702148	1787.723511	6.672604
602.790894	939.112061	14026.644531	1813.357788	6.679989
603.130310	942.009827	14390.355469	1836.911743	6.654364
603.469604	943.644531	14786.834961	1868.713379	6.682483
603.808838	948.920105	15128.034180	1885.803101	6.607486
604.148010	939.409363	15444.340820	1908.019531	6.677799
604.487305	939.186462	15539.374023	1913.443726	6.672909
604.826416	942.604309	15455.708008	1911.586304	6.676601
605.165527	946.542297	15151.215820	1886.843384	6.619660
605.504456	943.718811	14769.968750	1859.054077	6.620271
605.843445	935.694153	14291.609375	1835.500122	6.737134
606.182434	936.437195	13829.000000	1818.187622	6.839218
606.521423	943.347351	13426.948242	1786.386108	6.753170
606.860229	946.096497	13132.188477	1753.692871	6.627198
607.199036	942.827209	12946.655273	1725.012085	6.516129
607.537903	937.477356	12878.444336	1731.550781	6.649993
607.876648	935.099792	12930.752930	1740.764160	6.716302
608.215271	930.418640	13085.823242	1756.144897	6.793079
608.553955	931.533203	13265.338867	1766.175659	6.767112
608.892578	930.938782	13447.454102	1778.361328	6.770435
609.231140	938.889160	13586.473633	1791.587280	6.741984
609.569641	936.660095	13634.772461	1792.478882	6.739732
609.908081	937.774597	13572.729492	1785.048462	6.705792
610.246521	944.461914	13350.489258	1768.627563	6.643268
610.584961	945.204895	13015.608398	1742.250366	6.603304
610.923340	946.690979	12662.596680	1729.098633	6.678166
611.261597	936.214355	12302.450195	1700.566406	6.724760
611.599854	939.706543	12001.226563	1688.157837	6.766261
611.938110	940.598145	11705.799805	1663.935059	6.719214
612.276245	939.780762	11480.440430	1659.477051	6.827810
612.614319	937.626038	11305.382813	1649.594727	6.867143
612.952393	942.901550	11182.114258	1628.418579	6.695017
613.290466	953.229675	11083.291992	1607.242188	6.456155
613.628479	948.028503	10954.895508	1595.502319	6.470295
613.966370	940.523743	10838.538086	1599.588989	6.658560
614.304260	934.356689	10730.353516	1602.784058	6.823474
614.642151	941.861328	10648.620117	1597.359985	6.753013
614.979980	944.684814	10582.862305	1591.341431	6.709324
615.317749	943.644531	10544.077148	1578.412720	6.611871
615.655396	940.003723	10554.330078	1569.644897	6.548989
615.993164	935.917053	10546.082031	1572.988647	6.629143
616.330811	941.489746	10544.967773	1579.007202	6.638402
616.668396	941.638367	10518.961914	1578.412720	6.648772
617.005859	944.833435	10531.444336	1583.613892	6.663256
617.343445	947.582581	10524.311523	1582.870972	6.633668
617.680908	943.941711	10547.419922	1584.802734	6.673218
618.018311	944.387512	10558.119141	1580.270142	6.614316
618.355652	945.799316	10554.254883	1580.270142	6.603255
618.692993	950.703308	10475.270508	1575.291992	6.557659
619.030273	945.725098	10405.204102	1573.657227	6.638126
619.367554	948.177002	10356.089844	1568.976196	6.598692
619.704712	950.628967	10360.102539	1572.839966	6.612602
620.041870	951.297668	10360.770508	1570.982422	6.585754
620.379028	937.403137	10314.035156	1572.914429	6.777607
620.716064	937.626038	10295.235352	1577.372437	6.836644
621.053040	941.192566	10263.582031	1570.833618	6.754074
621.389954	942.381409	10272.424805	1560.580078	6.625893
621.726929	936.288574	10243.521484	1547.205444	6.563894
622.063843	934.653992	10230.518555	1552.258179	6.643860
622.400635	943.793152	10218.779297	1557.608032	6.617960
622.737427	949.811707	10206.445313	1549.360352	6.476962
623.074219	952.858093	10221.378906	1535.317017	6.284271
623.410889	952.412292	10222.791992	1537.917847	6.315875
623.747559	953.526855	10257.416992	1557.756470	6.494376
624.084167	953.229675	10288.846680	1566.004272	6.563836
624.420715	946.690979	10404.164063	1576.109375	6.655250
624.757324	939.706543	10518.961914	1581.533569	6.700176
625.093750	936.660156	10669.870117	1603.601440	6.852223
625.430176	940.821106	10869.002930	1605.384644	6.693708
625.766602	947.508301	11093.321289	1611.848999	6.547930
626.102905	952.040771	11308.799805	1617.570313	6.426041
626.439209	946.616699	11398.706055	1633.322632	6.570035
626.775452	937.031677	11466.469727	1635.551392	6.633969
627.111694	935.991394	11444.997070	1629.310059	6.597376
627.447876	938.220459	11382.731445	1608.356567	6.416156
627.783997	937.551758	11227.588867	1607.910767	6.514641
628.120056	936.437256	11053.792969	1603.898438	6.597190
628.456055	937.923279	10901.620117	1604.938843	6.694458
628.792053	950.183167	10783.107422	1590.375366	6.510700
629.128052	956.870422	10631.159180	1580.641724	6.447722
629.463928	960.065430	10465.613281	1572.542847	6.443368
629.799744	949.514465	10310.542969	1574.177368	6.673016
630.135559	937.923279	10203.770508	1562.957642	6.745571
630.471375	930.641602	10120.104492	1555.378906	6.798409
630.807068	937.997559	10042.831055	1537.249023	6.581685
631.142700	944.833435	9957.084961	1538.066284	6.582515
631.478333	948.474182	9902.546875	1534.574219	6.545626
631.813965	943.570129	9843.624023	1531.973511	6.611234
632.149475	938.889160	9821.258789	1525.434937	6.603484
632.484924	944.090332	9799.562500	1527.218140	6.584943
632.820435	950.926086	9799.563477	1527.886719	6.520333
633.155884	950.406006	9827.649414	1528.332642	6.510204
633.491150	951.149109	9832.850586	1532.865234	6.549603
633.826477	949.291504	9810.708008	1540.369751	6.670246
634.161804	952.932373	9759.810547	1547.057007	6.746144
634.497009	943.644531	9682.758789	1533.236694	6.746590
634.832153	944.833496	9618.413086	1529.150024	6.736740
635.167297	954.492737	9571.973633	1516.964355	6.527101
635.502380	958.133606	9505.250000	1512.877563	6.490423
635.837463	954.344055	9391.121094	1501.063477	6.480193
636.172424	946.393738	9274.391602	1496.902710	6.610340
636.507324	938.889160	9203.061523	1498.908813	6.776476
636.842224	945.799255	9149.785156	1490.586914	6.640524
637.177124	948.251282	9044.721680	1483.602417	6.612154
637.511963	953.378174	8925.391602	1463.094849	6.393826
637.846741	954.046875	8811.559570	1463.689087	6.486050
638.181396	943.198730	8755.312500	1456.779175	6.574155
638.516113	947.285339	8704.118164	1456.482056	6.564492
638.850769	933.093567	8683.536133	1451.726563	6.691657
639.185303	938.814941	8591.401367	1442.364380	6.580121
639.519836	936.214294	8519.327148	1443.553345	6.690380
639.854370	946.988098	8414.634766	1425.869263	6.412745
640.188843	944.981995	8351.402344	1424.606079	6.475788
640.523254	946.988098	8280.741211	1413.386353	6.359612
640.857605	942.232727	8230.661133	1422.822754	6.593877
641.191895	946.096497	8187.342285	1421.856812	6.570145
641.526184	944.164734	8159.330566	1416.655640	6.548580
641.860413	945.502136	8125.522949	1407.070679	6.428513
642.194580	942.530029	8094.613281	1407.293457	6.498295
642.528748	948.325684	8071.652832	1407.813599	6.450468
642.862793	945.056396	8043.269531	1405.213013	6.482711
643.196838	943.867493	8007.826660	1399.789063	6.454193
643.530823	943.570313	7972.682129	1407.665039	6.602466
643.864746	945.427917	7976.248535	1403.058228	6.508917
644.198669	952.263672	7963.319824	1403.429688	6.435065
644.532532	947.136780	7939.691406	1402.463867	6.511599
644.866333	956.053223	7926.242676	1404.692871	6.436549
645.200073	959.025330	7938.947754	1405.807495	6.400962
645.533813	951.669250	7970.898438	1399.491699	6.379938
645.867554	946.765320	7991.777832	1406.773315	6.529555
646.201172	941.341125	8011.244629	1406.624634	6.581186
646.534729	949.811707	8018.081543	1410.265625	6.514380
646.868225	945.650696	8014.588379	1413.089233	6.612571
647.201782	945.056335	8030.415527	1414.798218	6.629754
647.535217	940.672546	8012.582520	1420.073608	6.778947
647.868591	938.146179	8000.916504	1415.541016	6.759314
648.201965	936.437195	7953.586426	1419.256226	6.880558
648.535278	939.855042	7949.425781	1414.500977	6.771398
648.868591	946.913818	7948.756348	1407.219360	6.574063
649.201782	944.461853	7937.685059	1387.677734	6.337791
649.534912	944.907715	7924.904785	1384.631226	6.299767
649.868103	939.409241	7887.084473	1393.176147	6.531205
650.201172	937.626038	7893.920410	1401.795044	6.672647
650.534180	938.666199	7885.747559	1400.234741	6.644064
650.867188	940.895325	7888.720215	1396.593872	6.558867
651.200134	944.313293	7913.091309	1401.498047	6.560472
651.533020	937.105957	7910.564941	1409.225464	6.770234
651.865845	935.099792	7916.509277	1410.637085	6.811480
652.198608	936.808777	7873.487793	1402.909668	6.719367
652.531433	940.152344	7836.113281	1394.959351	6.595266
652.864136	939.483643	7780.164063	1380.024414	6.440014
653.196777	1072.856934	7873.042480	1439.912476	5.397728
653.529358	1088.980591	7837.005371	1437.460327	5.164174
653.861938	1088.014771	7766.119629	1444.667603	5.340629
654.194519	952.560852	7566.542969	1377.052368	6.418093
654.526978	938.517639	7534.741699	1373.485840	6.594200
654.859375	939.334961	7525.825684	1370.959473	6.553179
655.191833	941.861328	7517.280762	1385.522827	6.747273
655.524170	941.341125	7484.587402	1388.197754	6.829280
655.856445	948.251282	7470.246582	1379.430054	6.611148
656.188660	952.412292	7470.989746	1372.519897	6.444774
656.520874	949.142883	7502.345703	1368.879272	6.405057
656.853088	943.718811	7578.505371	1380.990601	6.590593
657.185181	935.842773	7659.867188	1382.699585	6.645675
657.517212	942.678528	7798.813965	1392.581665	6.562052
657.849243	941.415466	7950.242676	1411.974609	6.713807
658.181274	942.455750	8154.203613	1432.184937	6.790714
658.513123	937.848938	8330.747070	1442.810181	6.830356
658.844971	937.477478	8510.336914	1448.234375	6.744571
659.176819	940.523926	8644.750977	1449.274536	6.603526
659.508667	940.598145	8748.774414	1459.231079	6.642178
659.840393	942.158508	8749.219727	1461.163086	6.647887
660.172058	948.697205	8652.403320	1461.534546	6.657021
660.503662	951.000488	8480.541016	1446.599609	6.582063
660.835266	956.127441	8304.294922	1436.717407	6.540270
661.166931	942.975830	8101.374512	1426.537964	6.755172
661.498413	941.638367	7891.988770	1411.974609	6.767087
661.829773	931.904785	7689.365234	1398.674438	6.907472
662.161194	931.979004	7511.484863	1383.516602	6.862789
662.492615	934.951172	7372.910156	1372.742798	6.800162
662.823975	948.251404	7251.277344	1366.278442	6.632164
663.155212	952.115051	7164.937500	1356.173218	6.503617
663.486450	950.034607	7076.368652	1355.950317	6.625752
663.817627	948.102722	6986.165527	1344.433472	6.563872
664.148743	959.396729	6929.694824	1341.164063	6.394444
664.479858	967.644348	6887.416016	1337.894653	6.254469
664.810913	960.214050	6872.853027	1334.848267	6.336159
665.141907	956.498840	6847.664063	1326.526489	6.281061
665.472778	950.406067	6835.330566	1328.235474	6.420293
665.803711	955.310120	6840.977051	1329.795654	6.362669
666.134583	949.365906	6818.686035	1328.755493	6.463944
666.465454	948.028381	6804.494141	1324.891724	6.434996
666.796143	944.759094	6754.859863	1314.637939	6.366135
667.126831	951.966492	6763.553223	1322.514038	6.376013
667.457458	946.319519	6766.005859	1326.898071	6.539503
667.788147	947.954102	6808.878906	1325.932129	6.449119
668.118774	940.895447	6817.497559	1317.461548	6.407888
668.449219	934.951172	6842.017578	1311.517334	6.374842
668.779663	939.186340	6835.033203	1316.124146	6.393277
669.110107	943.421570	6822.996094	1319.913574	6.403389
669.440552	954.789856	6798.847656	1318.130371	6.217265
669.770874	950.851868	6763.256348	1310.402832	6.185925
670.101135	942.158508	6736.953613	1311.665894	6.376539
670.431396	942.455750	6678.402832	1307.133423	6.357759
670.761597	938.443359	6635.158203	1311.963013	6.556756
671.091797	941.638367	6606.403809	1308.693848	6.479623
671.421875	945.650696	6550.007813	1303.938477	6.393022
671.751892	947.582703	6505.798340	1302.378052	6.383260
672.081909	947.211121	6452.447754	1297.028320	6.354262
672.411865	939.037781	6459.953125	1304.532837	6.620189
672.741821	942.232727	6447.989746	1298.588745	6.472425
673.071716	943.793152	6424.138672	1300.297607	6.505146
673.401550	946.319397	6372.572754	1294.501953	6.416629
673.731262	940.895325	6352.882813	1296.879761	6.577703
674.060974	941.118347	6315.359375	1288.557861	6.464904
674.390625	939.632263	6300.499512	1290.341187	6.542018
674.720276	940.969666	6258.072266	1288.557861	6.537173
675.049927	941.489746	6235.781250	1288.409180	6.552708
675.379395	941.266846	6221.144531	1278.824219	6.393280
675.708923	943.867432	6203.980469	1275.257690	6.300059
676.038330	948.994324	6193.949219	1275.257690	6.220518
676.367737	948.102722	6183.695313	1274.737427	6.238734
676.697083	945.056335	6196.177734	1284.916992	6.472154
677.026428	933.019287	6198.927246	1285.437134	6.692442
677.355652	935.545593	6195.881348	1288.632080	6.712242
677.684875	933.316406	6212.599121	1287.071777	6.700823
678.013977	934.208069	6268.326172	1293.610352	6.737801
678.343079	927.223633	6329.923340	1302.155151	6.939707
678.672180	928.561096	6383.421387	1299.703125	6.803878
679.001221	939.483582	6447.023926	1302.972534	6.599842
679.330139	937.328857	6540.051270	1301.709351	6.503633
679.659058	937.923279	6646.378418	1310.774292	6.531557
679.987976	929.081238	6748.470215	1317.312988	6.671349
680.316772	940.672424	6789.039063	1326.749390	6.601449
680.645630	944.461914	6801.894043	1322.736938	6.458035
680.974304	952.263672	6745.349609	1312.483398	6.218097
681.302979	951.743469	6707.900879	1316.792847	6.341894
681.631653	948.251282	6658.118652	1320.285034	6.515629
681.960266	943.867432	6638.947754	1318.204712	6.572994
682.288757	936.065674	6574.750488	1303.492676	6.516183
682.617249	937.700378	6494.429199	1295.839478	6.445142
682.945679	940.969727	6399.247559	1290.118042	6.396676
683.274109	944.090393	6315.210938	1286.254395	6.370440
683.602478	944.090332	6213.937500	1275.554810	6.289831
683.930725	938.666260	6106.568848	1271.913940	6.448413
684.259033	946.022278	6033.381348	1266.118286	6.291988
684.587280	945.279236	5959.746582	1267.084351	6.417533
684.915344	948.177063	5897.183594	1262.626099	6.353781
685.243469	942.158508	5835.587402	1259.802612	6.491238
685.571533	946.319519	5822.435547	1250.589111	6.239999
685.899536	944.238953	5802.745605	1246.873901	6.228971
686.227539	940.895325	5804.083496	1248.805786	6.331453
686.555420	940.077942	5815.153809	1254.229980	6.444044
686.883301	936.660095	5842.051270	1266.415527	6.722307
687.211121	941.192566	5860.775391	1257.424927	6.428032
687.538940	942.529968	5858.917969	1262.551880	6.509289
687.866638	944.610413	5856.540527	1261.288696	6.447125
688.194336	946.468018	5829.643066	1263.592163	6.494221
688.521973	940.300964	5779.117188	1264.483765	6.699630
688.849609	947.062500	5730.077637	1259.208130	6.526127
689.177063	949.142883	5679.031250	1260.396973	6.580580
689.504578	956.647522	5604.060059	1251.109131	6.336033
689.832031	950.628967	5529.236816	1239.146484	6.301425
690.159485	947.062500	5469.794922	1238.254883	6.438417
690.486816	938.591980	5437.398438	1231.790527	6.517251
690.814087	943.718811	5372.904297	1236.174438	6.602921
691.141296	945.279236	5308.557617	1233.722412	6.610699
691.468506	939.335022	5250.378418	1238.254761	6.933814
691.795715	932.127625	5220.955078	1230.453003	6.955873
692.122803	926.926453	5171.023438	1222.056885	6.953904
692.449829	932.722107	5132.014648	1214.106445	6.700756
692.776855	931.236023	5078.962891	1219.753418	6.956036
693.103821	934.505188	5037.798340	1220.199341	6.962558
693.430664	941.861267	5012.312988	1217.672974	6.775949
693.757568	947.136719	5021.749512	1216.558472	6.612205
694.084351	950.628967	5017.142578	1216.409790	6.535840
694.411133	943.421631	5012.609863	1210.168457	6.555284
694.737854	945.725037	4981.849121	1199.022949	6.275771
695.064575	944.387512	4980.064941	1194.416138	6.195456
695.391174	948.622803	4991.359375	1195.382202	6.103771
695.717773	945.873596	5036.089355	1203.406860	6.296325
696.044250	941.861267	5079.928223	1205.264526	6.365370
696.370789	940.300964	5132.906250	1213.957886	6.527133
696.697205	935.619934	5202.973633	1211.728638	6.470256
697.023621	931.384583	5312.124512	1221.833862	6.630142
697.349915	932.796387	5426.179199	1234.836914	6.721896
697.676208	940.375305	5591.947754	1259.505371	6.860693
698.002380	942.678711	5783.872559	1274.960327	6.863630
698.328674	942.455750	6002.916504	1283.207886	6.733619
698.654724	939.780823	6174.185059	1278.081055	6.463013
698.980896	949.960266	6310.529785	1277.709473	6.114075
699.306946	948.994385	6341.514160	1280.978882	6.156389
699.632935	942.009949	6279.025391	1285.214233	6.430640
699.958862	940.226746	6126.705078	1273.697266	6.429614
700.284729	941.192627	5944.365723	1256.533325	6.302814
700.610596	948.028503	5742.634277	1241.598511	6.122922
700.936340	944.239014	5532.283691	1234.985596	6.337048
701.262146	946.170898	5348.904297	1233.053711	6.516016
701.587830	941.266907	5188.113281	1230.973145	6.821680
701.913513	940.226624	5057.785645	1223.468628	6.878881
702.239075	930.938782	4925.750000	1203.852661	6.831709
702.564697	941.341125	4855.459473	1187.134644	6.279665
702.890137	937.105957	4779.299316	1180.596069	6.337268
703.215698	939.335022	4740.513184	1182.602173	6.399783
703.541016	937.997559	4658.408691	1182.304810	6.566673
703.866455	947.211121	4602.458496	1180.595825	6.384923
704.191711	952.932373	4533.283203	1178.812622	6.308886
704.517029	950.703308	4492.416504	1175.394653	6.344143
704.842163	947.879883	4449.246582	1171.605225	6.389657
705.167419	948.399902	4432.231934	1181.116089	6.679891
705.492493	945.650696	4409.346191	1184.311157	6.890342
705.817566	935.768494	4392.554199	1180.373169	7.076073
706.142578	941.564026	4368.405762	1170.193604	6.671729
706.467590	943.644531	4367.736816	1166.478516	6.507826
706.792480	947.508301	4375.984375	1166.478394	6.386806
707.117371	937.403137	4404.368164	1163.283325	6.515214
707.442200	942.307068	4400.652832	1163.506470	6.396104
707.766907	948.028381	4389.656250	1171.754028	6.500576
708.091675	949.440186	4372.343262	1175.914917	6.616452
708.416321	943.124512	4383.934570	1179.407104	6.867063
708.741028	943.793274	4401.470215	1169.822144	6.537015
709.065552	950.926270	4432.008789	1165.289551	6.157949
709.390137	957.316223	4435.278320	1162.986206	5.913520
709.714600	954.121277	4463.141602	1171.456665	6.193620
710.039063	949.217285	4479.934082	1176.360718	6.433352
710.363403	949.960266	4554.385254	1177.846680	6.322407
710.687744	949.886047	4619.994629	1175.171875	6.138397
711.012085	944.461914	4683.449219	1178.441162	6.257824
711.336304	934.579590	4722.234863	1186.094360	6.640382
711.660461	932.424805	4729.368652	1187.877563	6.727852
711.984619	931.310303	4714.805176	1187.951904	6.783189
712.308716	938.443359	4672.304199	1183.567993	6.564911
712.632751	945.576416	4634.409180	1179.481445	6.340896
712.956726	948.548523	4597.852051	1171.010864	6.096022
713.280701	947.433899	4544.354492	1165.363892	6.058794
713.604553	941.266846	4500.292969	1166.775513	6.336246
713.928467	947.879822	4469.234375	1168.335815	6.260545
714.252258	952.560852	4436.615723	1171.976685	6.297715
714.575989	956.053040	4400.652832	1173.982910	6.326711
714.899719	952.337952	4377.173340	1177.326782	6.569333
715.223267	941.935608	4389.507813	1170.565308	6.631614
715.546936	935.768555	4405.928223	1164.992310	6.605568
715.870422	934.282471	4412.986816	1168.113159	6.721775
716.193970	935.917053	4393.742676	1170.936523	6.796741
716.517395	946.839600	4361.421387	1170.713623	6.556411
716.840820	944.833435	4309.632324	1158.156372	6.339842
717.164124	946.245178	4249.372559	1146.490845	6.062305
717.487488	936.139954	4198.475098	1137.649048	6.176836
717.810730	934.133789	4132.419922	1136.683105	6.333058
718.133972	934.802551	4078.104736	1143.667603	6.644765
718.457092	940.598145	4025.944336	1145.673706	6.646760
718.780212	948.548523	3978.762451	1138.243286	6.260111
719.103210	946.393738	3939.307373	1128.212524	6.074976
719.426208	946.616699	3887.072510	1118.999023	5.862435
719.749207	944.833435	3847.840820	1119.444824	6.014845
720.072083	951.297791	3796.720703	1125.314697	6.115678
720.394958	945.576477	3745.377686	1126.726440	6.470101
720.717773	942.975830	3699.384033	1123.754395	6.558483
721.040527	936.511536	3663.049805	1119.519165	6.712087
721.363281	936.139954	3646.703369	1123.977173	6.929822
721.685913	941.935730	3633.106201	1120.336426	6.629112
722.008545	944.610535	3625.081055	1119.073242	6.508660
722.331055	951.520691	3607.025391	1115.358154	6.169730
722.653503	950.183167	3580.871094	1115.060913	6.267476
722.976013	947.285400	3572.920654	1108.448120	6.138047
723.298401	945.427795	3574.852539	1107.927856	6.180061
723.620789	936.808655	3580.053955	1111.420044	6.605947
723.943115	943.644531	3565.119141	1122.639771	6.828036
724.265381	942.530029	3551.149658	1126.354858	7.046824
724.587585	949.885986	3547.583252	1119.519043	6.530132
724.909790	942.158508	3576.041260	1112.683228	6.474271
725.231873	943.867432	3591.347656	1105.698853	6.112659
725.553894	939.855164	3612.821289	1117.661499	6.652024
725.875916	981.464661	3656.808350	1141.958374	5.998994
726.197937	984.733948	3669.365479	1144.707642	5.958869
726.519775	986.665833	3676.944336	1140.546631	5.719883
726.841675	944.684753	3639.495850	1111.271362	6.181755
727.163513	941.192566	3661.935303	1111.345825	6.253927
727.485291	944.164734	3695.520264	1106.887573	5.914279
727.806946	947.582581	3753.104736	1112.237427	5.868955
728.128662	940.746765	3782.157227	1118.255859	6.247218
728.450256	945.502136	3802.218750	1123.828735	6.242362
728.771790	945.130615	3785.352295	1121.153809	6.197516
729.093323	954.344177	3777.030273	1115.506714	5.709545
729.414795	951.074768	3754.591064	1110.974243	5.703533
729.736145	956.870422	3745.080078	1114.689453	5.660228
730.057495	952.114990	3734.157471	1114.838013	5.849049
730.378845	946.319397	3758.677734	1125.240356	6.361954
730.700134	936.437195	3785.500732	1125.909058	6.650321
731.021301	933.019287	3808.088623	1125.537476	6.696123
731.342468	929.081238	3815.593018	1118.107300	6.548598
731.663574	933.910889	3819.159912	1123.308472	6.564341
731.984680	939.706543	3814.032959	1124.274414	6.421257
732.305664	945.947937	3816.410889	1127.840942	6.336713
732.626648	944.833435	3809.649170	1127.618042	6.380327
732.947571	942.307068	3822.057617	1131.630371	6.574296
733.268433	940.598145	3809.871826	1134.899780	6.771806
733.589233	941.489929	3778.367920	1135.419922	6.836036
733.909973	948.028503	3730.219727	1130.070190	6.543105
734.230713	950.183167	3667.508057	1125.760498	6.461403
734.551331	954.789978	3626.270264	1120.930908	6.219059
734.871948	951.892090	3570.022705	1122.491211	6.516066
735.192505	953.452454	3539.113037	1121.971069	6.517430
735.513062	948.771423	3491.485107	1115.358032	6.551528
735.833435	950.703308	3465.181641	1106.887695	6.211403
736.153931	949.960266	3416.662109	1099.754517	6.072653
736.474304	954.789978	3387.535156	1099.680298	5.955836
736.794617	949.886047	3361.752197	1099.011597	6.182994
737.114807	947.805603	3353.653564	1091.952759	5.991532
737.434998	940.672546	3359.003174	1088.757813	6.123450
737.755188	936.511536	3367.844971	1094.999146	6.518547
738.075256	940.746765	3376.686768	1110.156860	6.954609
738.395325	945.725037	3392.142334	1112.386108	6.812455
738.715271	951.074768	3427.956055	1110.751343	6.446678
739.035278	941.341125	3459.757813	1097.897095	6.216444
739.355164	936.140076	3464.438721	1091.878540	6.159813
739.675049	935.025452	3434.569092	1091.878540	6.275269
739.994873	939.557861	3412.723877	1099.606079	6.471390
740.314636	943.867432	3386.494873	1098.119995	6.315026
740.634277	942.232727	3369.479492	1092.250000	6.180553
740.953979	940.523865	3334.928955	1073.971558	5.573313
741.273499	942.084229	3307.585693	1075.011719	5.619421
741.593140	944.684814	3270.954346	1079.321289	5.787656
741.912598	948.771484	3237.815430	1092.249878	6.268049
742.232117	950.183167	3192.119141	1093.364502	6.386504
742.551453	945.353516	3165.593018	1084.596802	6.271544
742.870850	943.124451	3125.766846	1080.584473	6.297872
743.190063	941.341125	3116.999268	1071.593872	5.986820
743.509338	943.644531	3091.662109	1075.531860	6.139956
743.828552	943.941711	3072.714844	1069.216187	5.884820
744.147705	948.474182	3046.262939	1069.439087	5.766305
744.466797	952.337952	3021.000000	1064.089355	5.402110
744.785828	958.802307	3017.879150	1068.696045	5.337039
745.104858	954.641418	3004.207764	1071.593750	5.706199
745.423706	960.288391	3004.207764	1071.445190	5.438414
745.742615	953.898376	2989.272705	1067.581543	5.585369
746.061401	955.161438	2973.891846	1069.736328	5.675591
746.380249	943.570251	2955.985107	1063.494873	5.959239
746.698975	942.084229	2946.177002	1069.587769	6.362157
747.017639	932.945007	2956.356689	1067.804321	6.664947
747.336304	936.734375	2951.081299	1076.200684	6.923649
747.654907	944.461914	2955.242188	1078.355347	6.658780
747.973389	942.381348	2961.483398	1081.624756	6.896304
748.291931	941.043945	2966.610352	1077.240845	6.723892
748.610352	934.430969	2971.291748	1076.200562	6.960200
748.928711	944.164734	2955.093750	1081.104614	6.809782
749.247070	943.495911	2953.607422	1084.299561	7.004768
749.565308	944.238953	2954.721924	1080.584473	6.781730
749.883545	940.375183	2952.641357	1071.147949	6.498781
750.201782	941.489746	2959.997314	1069.884888	6.360895
750.519836	942.307129	2953.681641	1070.182129	6.357593
750.837952	939.112122	2943.725342	1068.547485	6.456874
751.155884	940.300964	2918.239502	1068.398926	6.476337
751.473877	936.585876	2897.434814	1068.176025	6.710876
751.791809	935.471252	2898.549072	1069.587646	6.831944
752.109619	932.276306	2897.657471	1066.392700	6.823938
752.427490	935.768494	2901.223877	1067.358521	6.695142
752.745300	940.969666	2901.149658	1072.336914	6.701796
753.062988	942.455750	2893.942383	1066.244019	6.343281
753.380615	938.889160	2882.722656	1058.888184	6.173318
753.698303	937.254578	2871.725830	1049.080200	5.780682
754.015808	938.889221	2873.063477	1059.408203	6.231030
754.333374	940.449524	2881.162109	1063.792114	6.355531
754.650757	946.616638	2875.886719	1067.210083	6.250729
754.968262	944.758972	2870.387939	1062.900513	6.135219
755.285583	949.737305	2860.654541	1059.185303	5.727511
755.602905	938.146179	2852.184326	1057.476196	6.234464
755.920105	941.489746	2858.722656	1050.046021	5.662133
756.237305	937.625977	2857.311279	1044.547607	5.569748
756.554443	945.056335	2861.992188	1045.439331	5.236639
756.871582	948.102722	2850.698242	1058.293579	5.791607
757.188599	948.845703	2858.722900	1070.033447	6.345316
757.505615	947.582520	2884.357422	1071.593872	6.402982
757.822510	945.799316	2908.877197	1069.959229	6.324757
758.139465	941.786926	2935.254639	1067.655884	6.314070
758.456238	935.917053	2953.755859	1066.541382	6.473477
758.773010	933.167786	2989.792969	1068.993286	6.604290
759.089783	937.477356	3010.746338	1068.473267	6.318326
759.406433	940.969666	3020.702881	1069.587769	6.184356
759.723145	937.254578	3018.102295	1072.634155	6.505982
760.039673	930.864502	3008.294189	1072.782715	6.831433
760.356201	933.167908	3020.851563	1070.925171	6.598570
760.672668	941.415527	3027.018311	1067.061401	6.024439
760.989136	951.149109	3027.315674	1070.627930	5.754780
761.305481	950.554749	3014.535889	1073.748657	5.968751
761.621826	949.514465	3001.309814	1073.897217	6.062142
761.938049	947.805481	3013.198242	1070.999390	5.964672
762.254333	957.019043	3044.777100	1071.370972	5.477260
762.570496	954.864319	3135.500732	1075.383301	5.526780
762.886597	953.006775	3265.753174	1080.435913	5.509862
763.202637	949.588806	3465.478760	1096.708252	5.847610
763.518677	950.034607	3679.322021	1106.887695	5.747035
763.834656	948.325623	3908.917236	1126.503540	6.018322
764.150574	942.752930	4075.429932	1139.803711	6.290172
764.466370	943.421692	4135.764160	1147.754150	6.400706
764.782288	950.554688	4074.241455	1138.763550	6.025216
765.097961	946.542297	3923.927002	1122.788452	5.919496
765.413696	943.718933	3725.538330	1111.717285	6.039154
765.729309	934.059387	3527.076172	1094.479004	6.186602
766.044861	937.328796	3349.789795	1087.791870	6.236912
766.360474	930.790222	3224.886719	1075.829224	6.322271
766.675903	931.533203	3130.447998	1079.172729	6.714200
766.991394	929.824219	3048.789063	1075.234741	6.862338
767.306763	934.802551	3001.755615	1075.086060	6.786971
767.622131	945.947937	2968.542236	1066.615479	5.965979
767.937378	946.765320	2927.750244	1053.835449	5.404894
768.252625	953.824036	2872.765869	1047.965454	4.905902
768.567810	944.833496	2824.840820	1052.052246	5.703103
768.882996	949.068665	2804.110352	1057.773560	5.859970
769.197998	939.706543	2781.893799	1061.562988	6.614770
769.513062	935.619873	2750.612549	1055.024292	6.578783
769.828064	935.619873	2710.489014	1057.476196	6.865651
770.142944	939.186340	2681.436523	1046.405151	6.154042
770.457825	937.254578	2654.539063	1047.965576	6.446865
770.772705	939.706543	2642.353271	1040.832520	5.939340
771.087402	938.369080	2628.904297	1034.516724	5.687409
771.402100	946.170837	2620.731201	1030.950195	5.062783
771.716736	942.975830	2608.025391	1027.086548	5.051544
772.031372	946.319397	2597.103027	1038.157593	5.563309
772.345947	947.211121	2570.502686	1042.913086	5.895550
772.660461	939.037781	2548.360352	1041.724121	6.380719
772.974854	937.774658	2526.961182	1045.662109	6.788847
773.289246	933.316589	2516.187256	1041.055298	6.806539
773.603638	940.969727	2506.973633	1050.120239	6.970003
773.917908	940.449524	2496.645752	1043.135864	6.598547
774.232178	944.907715	2494.268311	1042.690063	6.311142
774.546265	946.616699	2469.450928	1042.615845	6.303979
774.860474	947.731201	2457.116699	1041.203979	6.192770
775.174561	946.096497	2438.540771	1039.346436	6.248135
775.488586	950.406067	2442.404541	1029.835693	5.323707
775.802551	954.641296	2432.150879	1031.618896	5.209956
776.116516	956.275940	2418.107666	1031.098877	5.118437
776.430359	952.412292	2406.367920	1029.092773	5.273922
776.744202	946.988098	2394.479492	1026.269165	5.477135
777.057922	939.855042	2394.405273	1026.937866	5.986924
777.371704	938.220398	2391.284424	1034.219604	6.606675
777.685303	938.443359	2406.887939	1036.448608	6.674086
777.998962	944.090393	2402.206787	1037.563232	6.410520
778.312500	941.415527	2397.971680	1035.631348	6.468396
778.626038	944.164734	2386.157471	1031.098755	6.028742
778.939453	939.483643	2381.327881	1027.012207	6.070598
779.252869	939.334961	2370.479736	1025.377563	6.012152
779.566223	936.734375	2365.278564	1028.721191	6.439200
779.879578	946.616638	2361.265869	1029.464233	5.856406
780.192749	947.062500	2367.135986	1035.333984	6.215980
780.505920	951.223450	2357.699463	1032.807739	5.800617
780.819031	943.198730	2356.585205	1035.036743	6.497728
781.132141	945.650696	2357.031006	1029.389771	5.933133
781.445190	943.421692	2344.325195	1031.544678	6.290439
781.758118	943.941833	2329.539063	1023.445740	5.737880
782.071045	943.570251	2314.232666	1020.102051	5.583563
782.383911	941.415527	2306.282227	1023.817200	6.037342
782.696838	948.994385	2306.876709	1021.439514	5.335155
783.009583	950.480469	2290.901367	1021.068054	5.266076
783.322266	949.663086	2268.684814	1018.467468	5.216319
783.634888	945.353516	2257.167969	1028.201172	6.315501
783.947510	948.028381	2246.394287	1028.944092	6.232119
784.260132	953.898254	2243.421875	1025.006226	5.514282
784.572571	961.625732	2219.793701	1026.269165	5.137902
784.885010	952.263672	2202.778320	1022.999817	5.656563
785.197449	954.195496	2198.914795	1024.634521	5.659029
785.509766	954.269836	2186.655029	1016.609863	5.058486
785.822083	958.059265	2184.871338	1023.445801	5.329792
786.134277	952.783752	2178.630127	1016.164063	5.170331
786.446533	940.895325	2193.044922	1013.860657	5.827205
786.758606	944.907715	2201.515381	1011.260071	5.280276
787.070740	947.954102	2204.933105	1014.677979	5.308273
787.382690	953.898376	2210.580078	1019.359070	5.209012
787.694641	956.424622	2218.010498	1018.467285	4.917831
788.006653	946.765320	2264.449463	1026.343384	6.039237
788.318481	946.913879	2301.972412	1029.315552	6.081041
788.630310	935.545593	2351.309570	1030.430054	6.701997
788.942017	943.198730	2376.498291	1029.909912	6.049760
789.253784	944.610535	2393.885010	1031.619019	6.003589
789.565430	954.344055	2388.460938	1031.321655	5.367596
789.877014	950.257507	2353.538818	1031.321777	5.776766
790.188538	941.564148	2319.730957	1035.928467	6.847090
790.500061	944.387634	2289.861328	1040.163696	7.118390
790.811462	946.616699	2260.065918	1031.024536	6.426425
791.122925	948.771484	2228.710205	1022.925537	5.793563
791.434204	940.449463	2189.626709	1017.427063	6.162264
791.745483	941.489746	2166.815918	1019.284668	6.348916
792.056702	939.483643	2150.766602	1016.832703	6.385714
792.367920	944.907715	2138.135010	1015.421082	5.909466
792.678955	941.341125	2119.782227	1014.826599	6.235820
792.990112	954.567078	2112.203369	1020.770813	5.718872
793.301086	950.629089	2105.887451	1019.804871	5.987906
793.612122	951.149170	2107.447998	1020.547852	6.001795
793.922974	940.152344	2102.469727	1016.981384	6.609988
794.233826	945.130615	2094.296631	1019.433350	6.465796
794.544556	949.885986	2094.965088	1022.479797	6.339633
794.855286	953.006653	2097.565918	1021.959656	6.024415
795.166016	944.090393	2108.785400	1026.046265	7.036681
795.476624	937.997559	2125.132324	1020.770752	6.972519
795.787292	935.916992	2150.766602	1017.352783	6.703364
796.097778	933.242188	2181.602295	1011.854492	6.297246
796.408264	935.694153	2204.190186	1013.934875	6.167991
796.718689	935.545593	2214.592529	1020.027649	6.605079
797.029053	943.124512	2226.778076	1025.005981	6.378783
797.339355	948.177063	2214.072510	1029.018433	6.386101
797.649658	946.245117	2198.394531	1025.451782	6.325656
797.959839	946.616699	2167.038818	1022.925537	6.252659
798.270020	944.981995	2156.710693	1021.588135	6.322053
798.580078	951.372070	2141.701416	1023.445740	6.054935
798.890137	948.102722	2138.803711	1023.148499	6.302655
799.200195	948.622864	2129.590088	1020.547852	6.090345
799.510071	942.009949	2114.952393	1021.290955	6.759156
799.820007	944.907715	2085.157227	1011.260071	5.819108
800.129883	943.941711	2064.055420	1005.538757	5.499177
800.439575	947.656921	2050.458008	996.622375	4.440099
800.749329	944.981934	2044.810913	998.108398	4.830430
801.058960	946.245117	2045.999634	999.743103	4.864539
801.368591	945.873718	2040.872681	1008.585144	5.727076
801.678162	944.610535	2032.328125	1013.489075	6.332392
801.987671	937.180237	2018.433472	1011.260010	6.851288
802.297119	937.477478	2019.325195	1009.179504	6.627738
802.606506	945.576416	2010.408691	1006.801941	5.749781
802.915894	955.310120	1999.114624	1006.801941	4.933091
803.225159	959.099548	1973.703125	1000.931946	4.123029
803.534424	957.613525	1963.895142	1003.681152	4.578005
803.843628	955.978821	1955.276001	1005.167297	4.922307
804.152771	953.081055	1960.031616	1005.538757	5.209561
804.461792	949.365906	1969.839478	1008.956726	5.839526
804.770874	948.325623	1975.486694	1008.882324	5.895541
805.079773	943.495911	1984.180054	1011.037109	6.490077
805.388733	937.625977	1991.312866	1008.288025	6.706172
805.697571	938.591980	2004.464478	1011.928711	6.880441
806.006470	947.136780	2020.811035	1018.318787	6.629758
806.315125	958.356506	2035.300171	1011.928711	4.974467
806.623901	957.539246	2039.535522	1012.151672	5.047376
806.932495	957.836426	2036.637573	1006.133118	4.476885
807.241150	951.149170	2023.857422	1010.888489	5.569018
807.549622	944.833496	2018.730591	1006.058899	5.701236
807.858154	938.369080	1999.337524	1002.640930	6.057847
808.166565	937.700378	1982.545288	1001.452087	6.101547
808.474915	938.220459	1957.059204	1012.225891	7.263704
808.783264	940.598145	1938.186401	1012.077332	7.165199
809.091492	942.901550	1917.827515	1002.269348	6.089468
809.399719	946.096619	1911.511719	992.610046	4.817972
809.707825	946.245178	1917.084473	991.644226	4.676268
810.015930	940.746826	1919.536499	998.034180	5.852877
810.323975	945.947937	1923.771851	998.554382	5.379951
810.632080	954.195557	1904.155884	998.479980	4.661713
810.939880	957.984924	1903.190063	998.108459	4.244955
811.247864	951.743591	1892.861816	997.439697	4.855512
811.555664	938.963440	1884.094116	1002.343689	6.705977
811.863464	938.740540	1871.462524	1007.619141	7.384687
812.171143	939.409241	1858.236816	1013.340576	8.046268
812.478882	948.697083	1856.602173	999.817383	5.630578
812.786438	953.229675	1851.549438	997.811218	4.962770
813.094055	954.418457	1838.843750	992.164246	4.267832
813.401489	952.783875	1822.794312	1003.309631	5.807488
813.708984	949.365784	1804.218750	996.325195	5.493274
814.016357	946.468018	1811.203125	994.541931	5.559381
814.323730	945.576355	1823.760254	992.387207	5.330416
814.630981	950.406067	1826.732422	995.805115	5.180610
814.938232	954.864258	1825.766602	1002.418030	5.460288
815.245361	951.074890	1820.788086	998.331360	5.433569
815.552490	947.656921	1832.156372	993.427429	5.174736
815.859619	948.548523	1833.419556	982.356262	3.820640
816.166565	943.570313	1841.518677	978.864014	3.930482
816.473572	943.793152	1838.843750	986.888672	4.814870
816.780457	941.341125	1836.763306	989.415039	5.368855
817.087341	953.526855	1840.181274	995.507813	4.734760
817.394043	950.703308	1849.023315	995.582214	4.995871
817.700806	951.892090	1860.094360	994.541809	4.696060
818.007507	947.656921	1865.072632	1001.080566	5.823276
818.314209	950.926270	1864.849731	1001.600586	5.544700
818.620667	950.331848	1874.509155	1006.281738	6.054021
818.927246	946.170898	1891.152954	1002.418030	5.952190
819.233704	943.570313	1935.585938	1000.857666	5.774844
819.540161	941.192566	1978.161255	1001.303528	5.796796
819.846497	942.678650	2050.532227	1013.712097	6.411808
820.152832	947.731262	2131.819336	1019.730530	6.080566
820.458984	945.873718	2224.549072	1027.755249	6.403622
820.765259	942.009949	2313.043701	1028.572632	6.313680
821.071350	936.511536	2423.085938	1033.253662	6.507721
821.377502	941.861328	2613.301025	1041.872681	5.983545
821.683472	949.217285	2987.341064	1060.522583	5.461165
821.989441	956.573303	3699.235107	1108.150757	5.526655
822.295349	954.641418	4823.583984	1181.933350	5.874782
822.601196	951.743591	6235.187500	1265.003784	5.929091
822.907043	944.684875	7518.395996	1342.501587	6.051630
823.212769	944.536194	8298.053711	1374.228882	5.843362
823.518494	947.731262	8301.249023	1376.234985	5.827194
823.824097	952.560852	7659.570313	1337.225952	5.735270
824.129700	957.390625	6616.360840	1277.338013	5.653810
824.435242	954.715637	5556.060059	1211.208496	5.574303
824.740723	949.588806	4678.024902	1154.812866	5.504293
825.046082	948.622803	4034.711914	1129.698486	5.867481
825.351501	950.331787	3572.697998	1106.961914	5.972855
825.656799	949.960266	3248.143311	1085.191284	5.884258
825.962036	939.037781	3041.879150	1060.819946	5.791315
826.267212	941.118347	2953.681641	1053.092407	5.563754
826.572449	942.455750	2979.167725	1055.692993	5.559807
826.877502	950.108887	3140.478760	1076.052124	5.749862
827.182495	947.582581	3422.977783	1099.606079	6.141383
827.487488	944.610535	3764.770264	1127.098022	6.470821
827.792419	944.239014	4053.956299	1138.317749	6.241041
828.097290	945.130615	4146.983398	1138.020508	6.024321
828.402100	947.582581	4009.003662	1132.967896	6.055532
828.706848	951.074768	3697.674805	1116.472656	6.021914
829.011597	953.378174	3312.637939	1098.268555	6.141349
829.316223	960.139832	2949.520752	1075.234741	5.785464
829.620789	952.635193	2637.672363	1060.597046	6.407091
829.925354	947.656921	2415.804688	1035.705688	5.997269
830.229797	944.981995	2261.254639	1020.325012	5.723967
830.534302	952.858093	2129.739014	1007.916443	4.678328
830.838562	957.762024	2030.321777	1007.767883	4.662291
831.142944	955.755859	1961.666016	1002.715271	4.668351
831.447144	950.257507	1932.688110	1001.452087	5.211012
831.751404	951.074768	1911.065918	1002.715149	5.379256
832.055542	951.149109	1889.443848	999.074280	5.107688
832.359619	945.427795	1875.029175	1001.526367	6.034691
832.663635	934.133789	1893.159058	1003.904053	7.275123
832.967651	928.858337	1946.954102	1009.105286	7.882063
833.271545	929.155579	2053.281250	1014.677917	7.607898
833.575439	931.681885	2220.462646	1019.581970	6.820406
833.879211	931.756104	2446.565674	1039.049316	7.082951
834.183044	936.288574	2705.213623	1047.445557	6.283872
834.486694	943.421570	2892.084717	1058.145142	5.887296
834.790344	952.858093	2952.196045	1054.652832	5.091423
835.093933	953.898254	2881.682373	1059.631104	5.484683
835.397522	944.164734	2725.052490	1056.881958	6.329272
835.700928	938.814880	2535.654541	1044.473511	6.616734
836.004395	935.842773	2336.449219	1025.749023	6.419095
836.307739	943.867432	2169.713623	1008.362244	5.261248
836.611023	951.074768	2036.563110	1002.863770	4.771033
836.914307	960.065430	1936.254517	998.034119	3.889481
837.217529	957.167664	1859.202637	995.879395	4.291600
837.520691	950.108887	1795.079468	993.055847	5.082657
837.823730	947.434082	1733.928345	988.151855	5.177123
838.126831	947.062561	1694.399292	995.656433	6.502273
838.429749	943.495911	1664.529663	997.811279	7.532986
838.732727	937.774597	1646.473999	1001.377869	8.974648
839.035522	933.985168	1623.886108	994.839172	8.820687
839.338379	940.523865	1605.384644	995.433594	8.258831
839.641113	940.895325	1621.285522	993.055908	7.666275
839.943848	945.502136	1661.408813	997.291077	7.234035
840.246460	950.034607	1723.154419	997.142395	6.093207
840.549072	951.817871	1781.705078	1003.309570	6.204662
840.851563	953.452576	1817.964722	999.000183	5.268591
841.154053	946.988098	1829.110229	989.638000	4.834920
841.456482	946.319397	1790.101196	981.539001	4.174018
841.758850	949.440186	1738.089355	980.572998	3.947613
842.061157	949.068665	1681.693481	981.241699	4.391475
842.363403	958.876648	1631.093384	980.944519	3.282851
842.665588	954.715637	1578.709961	979.458435	3.965228
842.967712	949.737305	1535.242798	976.486328	4.568535
843.269775	939.706482	1506.116211	970.393372	5.417790
843.571777	946.170837	1482.339233	959.991028	2.577584
843.873840	953.378174	1466.587280	958.727966	1.042420
844.175659	952.560852	1454.327148	961.625793	1.806606
844.477600	944.981934	1441.175415	964.820801	3.998212
844.779297	942.084167	1424.754517	965.489502	4.849134
845.081116	944.833435	1412.643188	959.471008	3.128958
845.382751	942.752930	1403.355469	957.687744	3.242452
845.684387	945.650696	1394.662109	959.545349	3.094499
845.985962	944.238953	1382.476440	966.975586	5.188199
846.287537	944.759094	1374.228882	970.244934	5.934257
846.588989	946.170898	1366.947144	968.610168	5.332827
846.890381	947.062500	1362.340332	960.362610	3.202702
847.191711	945.427734	1353.201172	957.762024	3.024790
847.493042	942.158447	1340.941162	949.514465	1.844618
847.794250	939.929443	1330.761719	962.294617	5.722448
848.095459	946.765198	1330.538940	960.734192	3.639904
848.396606	945.799316	1338.117676	971.062256	6.439398
848.697693	952.263672	1339.009399	961.031433	2.267061
848.998657	949.440125	1339.232300	966.009766	4.250891
849.299622	951.743469	1332.916504	965.786804	3.684242
849.600464	950.926208	1320.656616	966.381287	4.180094
849.901367	952.337891	1309.882690	961.997375	2.701615
850.202087	953.749756	1298.365723	959.991211	1.811134
850.502808	945.725037	1302.229492	958.133606	3.480621
850.803467	945.725098	1313.151978	956.647644	2.972713
851.104065	941.118225	1309.362671	957.019043	4.318006
851.404663	949.291565	1299.926147	962.294495	3.708399
851.705139	948.102722	1278.824097	967.124207	5.751513
852.005615	953.452454	1280.161621	968.312988	4.548552
852.306030	947.136780	1289.003662	961.328613	4.151275
852.606384	949.737488	1286.848755	953.749756	1.190191
852.906616	944.090393	1288.334839	951.892273	2.266378
853.206909	954.641357	1279.938599	959.025208	1.347644
853.506958	947.954102	1284.322510	966.604004	5.544487
853.807129	944.461853	1283.282349	969.650391	7.434184
854.107178	939.112061	1281.424805	964.523621	7.423492
854.407166	940.746765	1284.768311	962.963318	6.457896
854.707092	944.016113	1284.025269	952.263672	2.425687
855.007019	937.180237	1291.084106	953.229675	4.534971
855.306763	936.585754	1284.099731	948.251282	3.356851
855.606567	934.282410	1287.443237	958.207825	6.774652
855.906250	938.740662	1279.121216	966.678406	8.207797
856.205933	941.861328	1278.749756	969.873474	8.314962
856.505493	944.313293	1269.090332	960.659851	5.033163
856.805054	948.994385	1271.542480	953.526794	1.405189
857.104492	946.096619	1275.851929	955.384338	2.816549
857.403931	948.697083	1273.994507	956.053040	2.261302
857.703308	943.273010	1266.192749	950.777527	2.323957
858.002563	947.656921	1260.025513	946.468018	-0.380609
858.301819	948.028320	1257.350586	953.823975	1.873662
858.601013	946.319397	1255.270142	958.728027	4.016378
858.900208	954.492676	1256.682007	962.071594	2.508003
859.199219	955.755859	1246.502441	961.179932	1.865567
859.498291	958.579407	1249.474609	956.350342	-0.766278
859.797302	951.892151	1245.610840	955.830261	1.340776
860.096191	954.121277	1261.957520	952.189392	-0.627569
860.395020	954.567078	1258.688110	955.087158	0.171011
860.693787	951.074768	1255.344482	951.743469	0.219773
860.992554	949.885925	1243.010376	954.938538	1.723709
861.291260	949.737305	1246.651123	962.220215	4.204220
861.589844	949.514404	1246.205322	975.000305	8.590051
861.888428	950.406067	1248.657227	965.563782	5.082198
862.186890	946.245117	1253.412598	965.712402	6.337678
862.485413	947.656921	1254.229980	962.963196	4.992701
862.783813	941.266907	1255.790283	971.730957	9.685782
863.082153	948.622864	1247.988525	964.003479	5.137735
863.380371	948.845703	1249.400269	960.436951	3.856620
863.678589	949.960266	1245.164917	962.666016	4.304048
863.976746	937.551758	1240.112427	962.517395	8.251449
864.274902	935.991394	1235.728516	956.647461	6.891394
864.572937	939.112061	1236.397339	959.693909	6.923265
864.870911	954.715637	1238.923584	961.774414	2.483666
865.168884	955.458679	1244.496216	960.734192	1.825200
865.466736	948.994324	1247.171265	960.734131	3.937195
865.764587	936.139954	1247.765625	963.854919	8.893672
866.062317	934.579590	1245.685181	974.034363	12.682117
866.360107	939.632141	1241.449829	972.028137	10.733631
866.657715	940.152344	1242.861694	966.901306	8.836516
866.955322	945.502136	1241.821411	953.155273	2.582733
867.252808	940.746765	1241.226929	953.749695	4.327384
867.550293	951.743652	1234.614014	959.545349	2.758047
867.847717	945.650696	1214.626587	965.786804	7.486213
868.145081	954.269836	1211.803101	956.350342	0.807859
868.442383	950.480286	1219.456421	947.582520	-1.077332
868.739624	946.022217	1229.932983	952.858093	2.407755
869.036804	936.585754	1228.595581	962.666016	8.931295
869.333984	933.019226	1220.125000	967.124207	11.878890
869.631042	938.071777	1225.994995	962.294495	8.412909
869.928101	947.359680	1228.224121	953.006653	2.010569
870.224976	947.582581	1231.419067	956.870422	3.272251
870.521851	949.811768	1224.657349	955.458679	2.054576
870.818726	948.028503	1226.515015	956.944824	3.201706
871.115479	950.257507	1228.000977	957.316223	2.541452
871.412231	953.824036	1235.431274	961.403015	2.691330
871.708862	941.861267	1230.601563	964.077820	7.694303
872.005493	938.591980	1226.366455	955.235840	5.783647
872.302063	931.384583	1222.279907	953.155273	7.484029
872.598572	942.827209	1225.697754	956.350342	4.780679
872.895020	946.096497	1236.099976	951.817871	1.972864
873.191406	951.817810	1253.115356	952.560852	0.246614
873.487671	946.690918	1256.681885	947.062500	0.119869
873.783997	949.811707	1253.486938	954.864258	1.663801
874.080200	947.656921	1246.428101	945.799316	-0.621748
874.376343	949.663086	1249.474487	946.393738	-1.090468
874.672424	948.994324	1248.211304	954.046936	1.688612
874.968445	948.697083	1249.771606	955.384460	2.221170
875.264465	946.245178	1240.632446	958.505188	4.164586
875.560364	941.341125	1241.078247	949.514465	2.726836
875.856201	939.855164	1234.093872	953.675476	4.696973
876.152039	937.774597	1237.066040	951.297791	4.518403
876.447754	945.204895	1226.960815	950.331787	1.819622
876.743469	947.211121	1225.846313	951.446289	1.519969
877.039063	951.669250	1230.527344	952.040710	0.133208
877.334595	954.789856	1245.016479	955.235840	0.153667
877.630127	957.464844	1247.468384	957.464844	0.000000
877.925537	956.350342	1246.130981	962.888977	2.256409
878.221008	940.523865	1239.443726	959.471008	6.338536
878.516296	940.969666	1246.130981	959.173828	5.965423
878.811646	942.307129	1259.431030	953.452454	3.514502
879.106812	943.570251	1269.982056	959.991211	5.030749
879.401978	939.037781	1286.997437	959.471008	5.872298
879.697083	937.774597	1314.118042	960.882813	6.140193
879.992126	947.433899	1353.869995	961.774414	3.528357
880.287109	942.752930	1398.154297	963.260498	4.503185
880.582031	941.786926	1467.701782	967.718689	4.930791
880.876892	934.802490	1585.248657	977.600891	6.579853
881.171753	940.969543	1830.521851	991.495544	5.679936
881.466492	944.461914	2236.066162	1020.399231	5.879302
881.761230	948.920105	2805.670898	1049.674438	5.426379
882.055786	945.502136	3357.962891	1085.042603	5.784155
882.350403	942.381409	3753.104736	1099.382935	5.585805
882.644958	941.266785	3829.339111	1105.104370	5.672904
882.939453	941.638367	3641.204834	1087.345947	5.397444
883.233826	941.786926	3274.520752	1064.609375	5.265172
883.528137	938.740662	2882.796875	1036.671509	5.037449
883.822449	943.050110	2529.561768	1018.021545	4.725552
884.116577	938.220520	2236.066162	1005.910217	5.215543
884.410828	942.827332	2010.854492	993.873230	4.779457
884.704956	941.043945	1831.487793	987.780457	5.248676
884.999023	951.149109	1697.891602	979.607117	3.810953
885.292969	946.988098	1589.112305	973.439941	4.119428
885.586914	951.446289	1512.654785	966.455505	2.674446
885.880798	951.520691	1453.212524	968.981750	3.480435
886.174622	959.099548	1427.801147	969.427551	2.203535
886.468384	948.920105	1413.609253	969.204773	4.365212
886.762085	946.468079	1397.188354	966.306885	4.401578
887.055664	939.409363	1381.139038	960.139709	4.692994
887.349304	947.954102	1359.739868	954.344177	1.551796
887.642822	949.663086	1345.176392	954.344177	1.183548
887.936340	950.703308	1313.151978	961.477234	2.972538
888.229736	944.759094	1288.854980	963.780579	5.527960
888.523071	945.056213	1269.016235	959.396729	4.426631
888.816284	944.536133	1262.180298	957.836426	4.187168
889.109619	951.520691	1244.644897	959.248108	2.636226
889.402710	948.771484	1233.945313	957.464844	3.048442
889.695862	951.223450	1215.295288	954.121277	1.097363
889.988892	942.975891	1212.991821	953.972717	4.072658
890.281921	934.876831	1206.379028	956.721863	8.045987
>>>>>End Processed Spectral Data<<<<<
