Jaz Data File
++++++++++++++++++++++++++++++++++++
Date: Fri Jun 04 12:59:20 2021
User: jaz
Dark Spectrum Present: Yes
Reference Spectrum Present: Yes
Processed Spectrum Present: Yes
Spectrometers: JAZA3586
Integration Time (usec): 40000 (JAZA3586)
Spectra Averaged: 10 (JAZA3586)
Boxcar Smoothing: 1 (JAZA3586)
Correct for Electrical Dark: No (JAZA3586)
Strobe/Lamp Enabled: Yes (JAZA3586)
Correct for Detector Non-linearity: No (JAZA3586)
Correct for Stray Light: No (JAZA3586)
Number of Pixels in Processed Spectrum: 2048
>>>>>Begin Processed Spectral Data<<<<<
W	D	R	S	P
191.335022	0.000000	0.000000	0.000000	0.000000
191.713211	407.921967	415.277924	401.829132	-82.828575
192.091385	817.701477	830.407227	811.014160	-52.632210
192.469528	1229.635742	1241.598511	1225.028931	-38.509575
192.847641	1240.409668	1240.558228	1237.140259	-2200.739502
193.225739	1250.886353	1250.811890	1242.935913	10677.048828
193.603790	1263.666382	1262.774780	1248.360107	1716.716919
193.981842	1266.489868	1265.301147	1251.406372	1268.884766
194.359863	1266.712769	1263.963623	1252.595337	513.520691
194.737854	1268.793091	1260.842896	1247.171265	271.965973
195.115829	1266.415527	1272.508423	1247.394165	-312.189209
195.493774	1274.143066	1280.310181	1249.548950	-398.794556
195.871704	1276.074829	1281.796143	1261.511597	-254.543518
196.249603	1279.567139	1277.560913	1266.341187	659.245483
196.627457	1275.183228	1269.461914	1264.186401	192.208069
197.005310	1269.684937	1271.988281	1265.895386	-164.523819
197.383133	1279.270020	1271.393921	1259.431030	251.888535
197.760910	1276.892212	1271.839722	1260.397095	326.475006
198.138687	1277.040894	1268.570313	1248.062866	342.101990
198.516449	1272.434082	1266.712769	1254.304321	316.881104
198.894180	1270.353516	1263.740723	1251.629272	283.151825
199.271866	1270.056274	1268.941895	1255.567261	1300.186279
199.649536	1260.025513	1264.037964	1252.669556	-183.328262
200.027191	1261.585815	1260.694336	1254.750122	766.780762
200.404816	1258.613770	1258.242310	1251.852417	1820.210327
200.782410	1263.963501	1281.350342	1254.453003	-54.699402
201.159988	1261.140015	1299.480103	1259.431152	-4.457116
201.537537	1257.647949	1309.511108	1256.384766	-2.435609
201.915070	1256.756226	1310.625732	1259.728394	5.517348
202.292557	1259.802612	1308.768188	1261.437378	3.338602
202.670029	1265.301147	1311.517334	1267.678833	5.144703
203.047485	1256.533325	1309.585449	1265.598267	17.086859
203.424911	1254.081177	1310.254272	1261.511597	13.227720
203.802292	1250.663452	1301.263550	1266.489868	31.277441
204.179688	1256.236206	1294.130493	1270.576538	37.842991
204.557037	1249.400269	1291.604248	1277.783936	67.253532
204.934357	1253.189575	1290.489624	1276.297852	61.952404
205.311661	1253.932617	1288.111938	1271.913940	52.608776
205.688934	1258.762329	1280.384521	1268.050171	42.955135
206.066177	1257.424927	1284.322510	1263.443481	22.375820
206.443390	1257.573608	1282.390625	1254.824341	-11.078156
206.820587	1256.682007	1289.598022	1254.526978	-6.547054
207.197769	1252.000977	1294.353394	1263.294800	26.666302
207.574921	1245.610840	1299.182983	1264.037964	34.396839
207.952042	1242.490112	1302.080933	1259.728271	28.927542
208.329147	1247.394165	1294.204712	1253.412598	12.857001
208.706223	1258.093628	1299.554565	1268.718872	25.627119
209.083267	1270.130737	1292.867310	1275.406250	23.202763
209.460297	1260.397095	1292.198608	1272.805664	39.018803
209.837280	1258.019409	1284.471069	1268.050415	37.922028
210.214264	1249.697388	1289.152222	1260.991577	28.625616
210.591217	1249.920288	1295.022095	1262.254639	27.347797
210.968124	1248.434204	1305.647339	1260.174194	20.519747
211.345016	1252.446655	1300.371948	1264.186401	24.495930
211.721893	1252.595215	1300.520508	1262.031616	19.689816
212.098724	1252.743896	1292.718750	1263.443481	26.765789
212.475555	1242.118530	1301.412109	1257.573608	26.065350
212.852356	1247.765625	1303.492554	1264.409302	29.866489
213.229126	1236.322876	1301.486450	1259.356812	35.347870
213.605865	1246.502441	1302.303833	1257.722046	20.106318
213.982590	1252.520874	1306.464722	1249.846069	-4.958498
214.359283	1255.938843	1305.424561	1249.251587	-13.513507
214.735931	1249.771606	1290.786987	1253.338257	8.695885
215.112579	1244.942017	1284.099731	1256.384644	29.221897
215.489197	1248.062744	1286.031494	1254.453003	16.830311
215.865799	1251.183472	1297.176880	1254.081421	6.300793
216.242355	1248.137085	1302.972534	1249.103027	1.761529
216.618896	1245.982300	1295.765259	1250.811890	9.701291
216.995407	1246.205200	1295.244995	1249.623047	6.969537
217.371902	1242.638794	1288.632080	1257.053345	31.340553
217.748367	1238.106323	1294.056152	1254.527100	29.349110
218.124802	1239.220947	1290.563965	1252.297974	25.469921
218.501236	1246.131104	1295.467896	1253.932739	15.813018
218.877609	1253.486938	1299.108765	1255.195801	3.745712
219.253983	1254.378540	1301.709351	1258.093628	7.849195
219.630295	1252.372437	1299.851807	1253.041016	1.408147
220.006592	1252.818237	1304.755737	1260.397095	14.592264
220.382889	1256.161743	1310.179810	1263.369263	13.342794
220.759140	1256.756226	1311.220093	1262.997681	11.459809
221.135391	1258.762451	1308.693848	1257.202026	-3.125138
221.511581	1253.189819	1303.566895	1257.647827	8.849278
221.887772	1254.824341	1303.046875	1259.951172	10.631609
222.263931	1253.784180	1300.371948	1260.694336	14.832555
222.640060	1253.635620	1299.405884	1258.613770	10.876384
223.016159	1249.028809	1303.566895	1253.635498	8.446738
223.392212	1246.725464	1306.910522	1250.143433	5.679099
223.768265	1246.428223	1310.105469	1251.109253	7.351182
224.144302	1249.994751	1310.997192	1259.134033	14.981831
224.520294	1252.966797	1309.511230	1271.839844	33.377373
224.896286	1248.805786	1310.254272	1274.960449	42.563560
225.272217	1244.570557	1309.362671	1274.514526	46.215454
225.648148	1241.524170	1309.065308	1269.239136	41.034199
226.024048	1250.886353	1311.442993	1263.666382	21.104258
226.399902	1249.771729	1312.334595	1262.180298	19.833761
226.775772	1256.235962	1313.226318	1258.836670	4.563418
227.151581	1250.217651	1318.278931	1262.774780	18.449739
227.527374	1255.641602	1325.783569	1265.449585	13.983046
227.903137	1250.068970	1337.151733	1269.239136	22.013731
228.278870	1249.177368	1352.903931	1272.805664	22.779408
228.654572	1245.759399	1358.551025	1274.291626	25.296406
229.030273	1244.719116	1369.101929	1282.910645	30.704828
229.405930	1249.103149	1366.427124	1291.009766	35.718716
229.781555	1247.691284	1378.389648	1290.563965	32.802769
230.157181	1248.954468	1373.931641	1283.431030	27.586288
230.532761	1240.409668	1384.110962	1277.486694	25.801456
230.908325	1240.706787	1374.005859	1278.378296	28.260893
231.283859	1236.025635	1372.594238	1277.783813	30.576704
231.659332	1241.524048	1359.888306	1276.000610	29.127512
232.034821	1235.357056	1361.151489	1275.629150	32.014210
232.410263	1244.347656	1361.002930	1277.115112	28.089134
232.785690	1238.552124	1359.219727	1276.297852	31.280746
233.161087	1252.892456	1349.783203	1280.830200	28.834274
233.536469	1249.177368	1349.931763	1284.991089	35.545567
233.911804	1256.682007	1358.105103	1289.523682	32.380863
234.287140	1251.777954	1365.683960	1290.192383	33.724674
234.662430	1257.127686	1361.745972	1287.963379	29.474478
235.037704	1257.945068	1358.996826	1292.347168	34.044037
235.412933	1259.579712	1366.278320	1294.427734	32.660240
235.788162	1251.629272	1374.674683	1293.387451	33.937210
236.163345	1249.994751	1383.813843	1292.421509	31.704563
236.538513	1249.474609	1390.055298	1297.622681	34.249420
236.913635	1246.948364	1401.795044	1306.761963	38.627628
237.288742	1249.326050	1407.070679	1309.659790	38.247730
237.663834	1248.062744	1404.767212	1305.350220	36.557652
238.038879	1249.548828	1403.652710	1299.257324	32.256485
238.413910	1245.833862	1392.878784	1296.359497	34.360680
238.788910	1245.685059	1403.058228	1304.755737	37.535419
239.163879	1249.325806	1415.764038	1315.158203	39.553650
239.538834	1253.709839	1428.841309	1325.337769	40.899521
239.913757	1254.527222	1427.132324	1328.904175	43.090820
240.288651	1253.561157	1432.036255	1335.517212	45.920162
240.663528	1244.644897	1450.314819	1348.445801	50.469658
241.038361	1239.517944	1472.754272	1356.990601	50.366364
241.413177	1236.100098	1501.435059	1369.993530	50.462040
241.787979	1243.827515	1533.088257	1379.355591	46.853256
242.162735	1244.273315	1565.409668	1392.507202	46.159172
242.537476	1243.456055	1579.824585	1404.692871	47.934574
242.912170	1234.762695	1591.267090	1417.398804	51.229694
243.286865	1241.301270	1593.347656	1425.126343	52.216152
243.661514	1245.982422	1592.901855	1419.850586	50.117737
244.036148	1252.223755	1575.589233	1412.866211	49.678295
244.410751	1246.576782	1571.354004	1404.544312	48.638733
244.785339	1249.846069	1566.821411	1408.185059	49.953094
245.159882	1249.623169	1585.768555	1418.438843	50.221031
245.534378	1254.081299	1606.870605	1429.138550	49.620907
245.908890	1249.325928	1652.269653	1452.692505	50.470219
246.283356	1249.400269	1709.408569	1486.574585	51.558704
246.657791	1248.359985	1772.119751	1531.379028	54.036041
247.032196	1245.536499	1829.481567	1574.251587	56.292126
247.406586	1243.827515	1867.375977	1590.969727	55.672050
247.780960	1244.719116	1871.759888	1593.347534	55.599003
248.155289	1251.480835	1851.326538	1579.378540	54.663673
248.529602	1254.750000	1812.986328	1563.254883	55.264206
248.903870	1252.892456	1771.896851	1546.090820	56.492462
249.278122	1250.366211	1724.343262	1521.942505	57.297352
249.652344	1251.629272	1691.724243	1501.360718	56.744900
250.026550	1249.251587	1673.817383	1484.345337	55.372749
250.400711	1248.062744	1669.284790	1481.596313	55.441914
250.774857	1241.598511	1672.405640	1478.178223	54.915459
251.148987	1245.908081	1677.086548	1487.243164	55.971043
251.523071	1241.895630	1687.488892	1506.338989	59.346355
251.897125	1244.867798	1702.869751	1530.561646	62.378304
252.271164	1240.186768	1718.770508	1544.679199	63.623646
252.645187	1244.793457	1727.166870	1535.837280	60.335793
253.019165	1243.678955	1708.665405	1528.481323	61.249607
253.393112	1244.347656	1695.365234	1523.205688	61.828640
253.767044	1248.434204	1678.275513	1518.599121	62.852245
254.140930	1252.818237	1667.427368	1506.041992	61.075294
254.514801	1253.115479	1653.458374	1497.051270	60.931713
254.888657	1255.493164	1650.932129	1493.113281	60.090214
255.262466	1255.715942	1653.607056	1496.902710	60.616276
255.636276	1252.892456	1667.353149	1503.218384	60.397991
256.010010	1247.988403	1685.557251	1518.896118	61.912022
256.383759	1240.632446	1720.108032	1542.524536	62.962975
256.757446	1238.700684	1753.098511	1554.858765	61.461784
257.131134	1228.967041	1788.317871	1570.462280	61.052067
257.504791	1234.465454	1828.812866	1593.273071	60.370014
257.878418	1241.672729	1878.001343	1645.062134	63.393253
258.252014	1254.675659	1953.344238	1700.640625	63.830688
258.625580	1253.189697	2043.473267	1777.692505	66.368935
258.999115	1249.697388	2163.992432	1849.246094	65.574974
259.372650	1238.552002	2270.839844	1928.452759	66.832207
259.746124	1231.790405	2368.696533	1995.027954	67.132858
260.119598	1231.939087	2427.321289	2039.238159	67.534805
260.493042	1237.883301	2439.506836	2046.816895	67.320053
260.866425	1246.353882	2404.733154	2018.879272	66.690193
261.239838	1239.963867	2331.099365	1967.759155	66.700722
261.613159	1242.564331	2239.484131	1911.734741	67.123795
261.986511	1241.226929	2148.314453	1848.874634	66.988869
262.359802	1246.130981	2086.494629	1810.385742	67.144119
262.733063	1237.957642	2070.148193	1786.534546	65.919624
263.106293	1240.632446	2052.389893	1778.138306	66.215080
263.479523	1245.759399	2038.495117	1761.346069	65.038910
263.852692	1251.257813	2026.012329	1761.791870	65.896233
264.225861	1241.598389	2015.312866	1760.825806	67.108398
264.598969	1240.632446	2015.981445	1779.104370	69.448975
264.972076	1244.421875	2014.792480	1791.141479	70.968391
265.345154	1249.400269	2064.723877	1812.912109	69.115112
265.718201	1248.582886	2105.887939	1839.512573	68.928757
266.091217	1239.666504	2163.100830	1870.422363	68.305435
266.464203	1243.604614	2199.434814	1896.354004	68.291351
266.837158	1248.434326	2249.663330	1929.567261	68.029686
267.210114	1256.681885	2285.105957	1952.304077	67.639626
267.583038	1259.133911	2308.288086	1965.752930	67.351303
267.955902	1256.161743	2324.560547	1968.130493	66.638855
268.328766	1249.400269	2323.817627	1965.381226	66.639000
268.701569	1238.106323	2334.517090	1981.430664	67.796158
269.074371	1240.484009	2333.848389	1986.929077	68.270477
269.447144	1240.632446	2361.563232	2016.873047	69.249649
269.819885	1245.610840	2416.101563	2063.906738	69.910500
270.192596	1241.524048	2509.425781	2131.150635	70.165260
270.565277	1247.022583	2630.985107	2209.168701	69.521111
270.937927	1246.651001	2745.559814	2285.848877	69.330292
271.310577	1245.685059	2832.197021	2354.653320	69.899773
271.683136	1244.421875	2878.858643	2404.436279	70.973343
272.055725	1253.264038	2895.205811	2415.135498	70.762039
272.428284	1265.746948	2876.630127	2397.079834	70.230598
272.800812	1268.644653	2843.936768	2368.770752	69.836327
273.173279	1258.911011	2770.079834	2331.693604	70.990257
273.545776	1248.137207	2743.702393	2308.957031	70.931030
273.918152	1252.669556	2710.786133	2283.991455	70.729729
274.290558	1254.229980	2709.597412	2276.858398	70.265999
274.662964	1258.242188	2685.151611	2278.344482	71.490334
275.035278	1246.205200	2689.386719	2285.105713	71.986824
275.407593	1242.192871	2720.148193	2304.127197	71.851585
275.779907	1235.431274	2764.507080	2336.597656	72.015160
276.152161	1244.199097	2822.611572	2371.668701	71.430603
276.524384	1249.103149	2866.524658	2403.321533	71.361633
276.896606	1252.818237	2894.462646	2417.587646	70.951385
277.268799	1247.394043	2886.883545	2423.754639	71.751640
277.640930	1245.759399	2888.666748	2432.076660	72.208412
278.013031	1242.713013	2881.608154	2445.005615	73.359947
278.385162	1246.130859	2899.886719	2457.711182	73.262344
278.757233	1250.737671	2904.865234	2463.729736	73.331230
279.129272	1255.493042	2946.028564	2488.843994	72.956230
279.501282	1254.675659	2975.452393	2510.837646	72.999710
279.873230	1253.264038	3051.241455	2562.403564	72.811790
280.245178	1255.121582	3138.398438	2605.721924	71.715446
280.617126	1255.121582	3236.254883	2693.473633	72.602486
280.988983	1256.681885	3320.365479	2770.376953	73.349182
281.360870	1253.264038	3407.002686	2842.673828	73.797707
281.732697	1246.948242	3485.020508	2889.632813	73.397301
282.104492	1246.874023	3536.438232	2908.208252	72.561157
282.476288	1244.496216	3547.360596	2931.316650	73.248802
282.848053	1248.880127	3540.153076	2930.127686	73.376137
283.219757	1241.821289	3532.277100	2947.588867	74.472847
283.591461	1241.672729	3511.546631	2936.072021	74.647285
283.963135	1245.908081	3533.317383	2951.972656	74.585022
284.334747	1251.926636	3581.985596	2973.966064	73.905396
284.706360	1258.911011	3668.325439	3024.120850	73.263016
285.077942	1259.728394	3752.881836	3073.309326	72.742455
285.449524	1264.112183	3818.714111	3131.414063	73.095604
285.821014	1260.471313	3849.252686	3156.305420	73.232689
286.192535	1259.059692	3879.270752	3197.989258	73.998985
286.563995	1251.852173	3870.874756	3206.979736	74.651039
286.935425	1252.595337	3855.048096	3205.493408	75.040680
287.306824	1248.434204	3779.184814	3153.258789	75.267181
287.678223	1245.090698	3732.968750	3104.961914	74.757332
288.049561	1242.415771	3696.337891	3068.776611	74.426193
288.420898	1243.753296	3694.182861	3070.411377	74.544395
288.792145	1243.827515	3720.857422	3091.438721	74.589783
289.163452	1245.685059	3790.181885	3158.088623	75.158417
289.534668	1240.186646	3913.301514	3244.502686	74.980545
289.905914	1242.713013	4016.136475	3331.139648	75.301407
290.277039	1240.261108	4124.023926	3409.009033	75.205498
290.648193	1252.446655	4150.104492	3445.565674	75.685928
291.019318	1253.858398	4165.781738	3454.110596	75.560097
291.390381	1252.595215	4100.841797	3410.197510	75.751945
291.761475	1243.010132	4044.445313	3351.944336	75.280495
292.132507	1241.821411	3996.594482	3314.792969	75.250183
292.503510	1242.415771	3986.935547	3315.015625	75.517761
292.874481	1245.313599	4028.098877	3343.993896	75.416534
293.245422	1242.713013	4106.116699	3403.436279	75.459953
293.616364	1240.409546	4238.301270	3491.410400	75.086136
293.987213	1241.821411	4366.770996	3597.589111	75.385773
294.358093	1250.440552	4465.221680	3686.826904	75.787003
294.728943	1253.932739	4551.709961	3757.860107	75.927727
295.099731	1253.041138	4634.780762	3835.134766	76.354004
295.470490	1252.297974	4746.234375	3918.056641	76.296715
295.841248	1250.960571	4840.228027	3993.696533	76.414917
296.211975	1250.737671	4932.363281	4064.210205	76.419304
296.582642	1245.536499	5032.077637	4136.729980	76.354469
296.953308	1253.561157	5075.767578	4186.735840	76.740356
297.323883	1257.870728	5091.668457	4184.506348	76.337769
297.694519	1262.031738	4994.331543	4125.287109	76.715576
298.065063	1255.418823	4903.905762	4048.086670	76.543182
298.435608	1246.279663	4776.030273	3949.635498	76.587738
298.806122	1237.437500	4613.901855	3817.153564	76.402878
299.176575	1233.870972	4445.457520	3691.879150	76.535645
299.547028	1241.598511	4328.430176	3619.285400	77.026779
299.917450	1246.502319	4293.211426	3609.106201	77.546097
300.287872	1257.499146	4292.245605	3605.688232	77.376770
300.658234	1252.818115	4278.127441	3586.220703	77.129387
301.028564	1247.616943	4257.396973	3562.444092	76.910179
301.398865	1236.545898	4225.373047	3547.360596	77.315102
301.769135	1245.685059	4183.020508	3520.908936	77.458771
302.139374	1261.362915	4145.645996	3486.506592	77.147194
302.509583	1261.140015	4107.305664	3461.169189	77.298012
302.879791	1255.121582	4070.080078	3424.240967	77.056885
303.249939	1249.846069	4026.093018	3389.838867	77.082214
303.620087	1252.446655	3988.198486	3357.145508	76.933098
303.990173	1247.319702	3977.127197	3347.634766	76.940033
304.360260	1247.988525	3975.269531	3365.244873	77.632500
304.730286	1244.942017	3978.241943	3363.758545	77.518623
305.100281	1244.793579	3968.136719	3374.086670	78.186729
305.470276	1239.146606	3973.709717	3378.173096	78.221870
305.840179	1243.010254	3994.811523	3410.272217	78.757942
306.210144	1250.514771	4026.389893	3433.602783	78.645035
306.579987	1254.601440	4080.408203	3458.345703	77.986374
306.949890	1253.412598	4129.225098	3493.862549	77.906677
307.319702	1245.016479	4194.760254	3556.276611	78.354614
307.689484	1240.558228	4268.097168	3629.018799	78.891151
308.059265	1247.319702	4363.278320	3701.464111	78.760498
308.429016	1251.926392	4461.803711	3784.163330	78.888893
308.798737	1250.812012	4540.119141	3835.803711	78.587730
309.168396	1244.347656	4591.388184	3872.732178	78.528610
309.538055	1242.564453	4603.351074	3879.568115	78.463882
309.907684	1247.988525	4598.372559	3895.023193	79.006905
310.277313	1252.446655	4599.338867	3928.459229	79.955154
310.646851	1254.527100	4599.636230	3931.654297	80.031090
311.016388	1255.121582	4574.447266	3935.295166	80.744522
311.385895	1248.359985	4508.837891	3874.441406	80.542839
311.755371	1247.542603	4453.036621	3842.416748	80.950829
312.124817	1246.056519	4412.541504	3799.469727	80.638725
312.494232	1253.115356	4391.811035	3795.457031	80.999939
312.863617	1256.161743	4376.876465	3784.311768	81.011887
313.232971	1254.675659	4388.615723	3793.822998	81.020935
313.602295	1252.372314	4442.262695	3847.395264	81.351479
313.971619	1249.325928	4521.914551	3927.196289	81.827286
314.340820	1246.056641	4563.747559	3977.796143	82.338577
314.710083	1242.118530	4560.849609	3971.257568	82.234421
315.079285	1245.833740	4494.423340	3924.149414	82.445496
315.448486	1241.970093	4428.219238	3858.614502	82.123039
315.817596	1251.034912	4323.749512	3775.321289	82.151672
316.186707	1247.691284	4221.359863	3699.384033	82.446747
316.555786	1259.133911	4118.896973	3634.815186	83.072655
316.924866	1252.372314	4079.813721	3600.189697	83.036819
317.293884	1255.938843	4084.643555	3588.524170	82.461258
317.662872	1244.644897	4118.822754	3606.951172	82.190674
318.031830	1244.942017	4154.265137	3639.941650	82.321533
318.400757	1240.632446	4180.939941	3669.440186	82.603859
318.769684	1243.753174	4214.970703	3697.006104	82.567261
319.138550	1241.969971	4205.905762	3712.386719	83.349197
319.507416	1243.456177	4173.435059	3702.207275	83.917015
319.876190	1240.335327	4115.330566	3670.406006	84.524345
320.244995	1242.415771	4062.352783	3634.889404	84.841385
320.613770	1240.706787	4031.739990	3601.973389	84.601883
320.982483	1248.508667	4032.185791	3601.007080	84.510460
321.351166	1250.886230	4075.504639	3611.409424	83.569633
321.719818	1254.601440	4133.163574	3673.452148	84.029823
322.088440	1262.180298	4243.057129	3780.076416	84.468300
322.457062	1258.911133	4397.234863	3917.610596	84.717186
322.825623	1259.059692	4569.469238	4048.829346	84.272636
323.194183	1252.595337	4700.167480	4147.503418	83.969475
323.562653	1250.440552	4761.764160	4215.044922	84.429825
323.931183	1249.994629	4774.544434	4242.982422	84.918297
324.299591	1251.480835	4710.272949	4236.815430	86.311478
324.668060	1254.898682	4649.121094	4190.078613	86.475769
325.036407	1250.366211	4575.710449	4136.729492	86.798935
325.404755	1245.536499	4531.425781	4068.073975	85.898743
325.773102	1242.564331	4460.020508	4019.925781	86.321655
326.141388	1240.558228	4382.002441	3958.106201	86.506317
326.509674	1246.353760	4307.105469	3888.856201	86.335083
326.877899	1249.846069	4242.091309	3827.927734	86.158768
327.246124	1253.858398	4196.395020	3783.345947	85.962822
327.614288	1251.257813	4161.695313	3751.321533	85.899925
327.982422	1252.520996	4164.964355	3746.937500	85.646866
328.350525	1251.332153	4178.190430	3763.878906	85.844498
328.718628	1245.982300	4217.348145	3796.794678	85.846466
329.086700	1238.477783	4255.316895	3836.843994	86.128761
329.454712	1236.694458	4311.415527	3879.791016	85.962158
329.822693	1240.929810	4338.981445	3911.963867	86.216576
330.190674	1244.644897	4382.597168	3931.430908	85.622276
330.558563	1252.966797	4409.940918	3954.910889	85.586517
330.926483	1249.103027	4492.639648	4025.350342	85.593216
331.294312	1248.211426	4570.434082	4112.581543	86.218491
331.662231	1238.031860	4679.139160	4203.601563	86.180679
332.029999	1235.357056	4747.052246	4266.536621	86.316704
332.397766	1237.214722	4805.082520	4313.941406	86.234322
332.765503	1247.765625	4853.453613	4330.362793	85.492622
333.133240	1255.270142	4897.589355	4359.786621	85.234612
333.500916	1259.208130	4911.632813	4347.526367	84.555290
333.868561	1256.756226	4889.490723	4338.758789	84.839745
334.236176	1262.923340	4863.039063	4311.489746	84.679680
334.603790	1262.031738	4832.352051	4305.396484	85.240662
334.971344	1254.007080	4795.646484	4278.053223	85.385490
335.338867	1250.143311	4756.934570	4259.477539	85.814468
335.706360	1246.651001	4741.553711	4243.874512	85.759857
336.073853	1247.468384	4766.519531	4246.029297	85.209358
336.441284	1242.044312	4811.101074	4271.291992	84.875298
336.808655	1239.220825	4850.109863	4281.694824	84.258308
337.176086	1238.923462	4901.378906	4326.499512	84.303444
337.543396	1243.901978	4921.960938	4335.118164	84.044769
337.910706	1247.691406	4942.691406	4335.117676	83.556870
338.277954	1256.756226	4929.911133	4321.595215	83.438873
338.645264	1250.663452	4893.428223	4283.329102	83.251755
339.012421	1249.771851	4842.977051	4245.509277	83.372292
339.379669	1241.970093	4748.761230	4173.435547	83.593956
339.746796	1247.319702	4669.331543	4104.631348	83.498009
340.113953	1247.245483	4588.416016	4061.089111	84.217308
340.481018	1254.378418	4571.178223	4045.559814	84.152847
340.848114	1252.149414	4581.506348	4067.999268	84.576385
341.215118	1253.709717	4637.307129	4097.869141	84.057266
341.582153	1250.440430	4753.145020	4189.930176	83.920570
341.949066	1246.651001	4923.669434	4310.003906	83.310783
342.316010	1242.341431	5151.407715	4475.698730	82.714310
342.682922	1237.660278	5370.972168	4622.818359	81.899414
343.049835	1237.957642	5673.830078	4834.432129	81.077049
343.416656	1240.558228	5945.035156	5060.907227	81.206673
343.783478	1240.483887	6176.710938	5269.548828	81.622360
344.150269	1249.920288	6281.255371	5379.962891	82.086418
344.516998	1248.211426	6281.105957	5399.727051	82.487633
344.883728	1255.938843	6186.667480	5333.597656	82.698906
345.250427	1250.143433	6072.761230	5231.728516	82.560661
345.617065	1258.688110	5957.071777	5091.445313	81.576080
345.983704	1255.864624	5849.259277	4986.381348	81.214806
346.350281	1261.734497	5704.665527	4872.549805	81.271019
346.716827	1254.155518	5574.857910	4777.219238	81.539146
347.083405	1252.446655	5496.617676	4681.442871	80.793076
347.449860	1247.394043	5445.274902	4624.452637	80.446747
347.816376	1247.022583	5417.187988	4603.722656	80.493210
348.182770	1242.564453	5415.999512	4611.895996	80.732811
348.549194	1235.951538	5461.026855	4620.960449	80.117126
348.915558	1239.517944	5530.945801	4650.384277	79.480919
349.281921	1240.409668	5604.654297	4683.374512	78.890282
349.648193	1242.490112	5645.446777	4722.458008	79.037071
350.014526	1241.004028	5684.975098	4747.498047	78.904518
350.380737	1245.536377	5704.889160	4758.568848	78.778984
350.746948	1247.468384	5751.699219	4776.773438	78.355331
351.113159	1247.245483	5805.271484	4804.265137	78.038597
351.479309	1246.874023	5882.100098	4845.206543	77.630142
351.845428	1248.359985	5994.371582	4927.087891	77.511986
352.211517	1238.329224	6110.135254	5002.430176	77.262947
352.577576	1235.877075	6229.540527	5099.172852	77.363960
352.943604	1234.613892	6340.623047	5161.141602	76.900131
353.309601	1245.759399	6482.392578	5250.378906	76.473175
353.675537	1238.997925	6637.536621	5347.046875	76.095573
354.041473	1243.084595	6782.798340	5458.055176	76.086433
354.407379	1236.248657	6896.556152	5533.101074	75.911995
354.773254	1245.982300	7027.105469	5604.134277	75.385902
355.139038	1242.267212	7175.414063	5691.514160	74.989662
355.504913	1243.307373	7403.746094	5854.014160	74.843811
355.870636	1241.895630	7653.254395	6046.384277	74.937134
356.236389	1238.997925	7906.626953	6232.735840	74.895256
356.602081	1241.301270	8136.371094	6393.822754	74.727615
356.967804	1242.861694	8302.883789	6498.888184	74.447731
357.333405	1246.799683	8403.192383	6561.302246	74.262306
357.699036	1253.041138	8421.247070	6557.587402	74.001030
358.064606	1255.493164	8382.758789	6489.599609	73.437790
358.430176	1257.796509	8328.592773	6419.531738	73.000763
358.795654	1261.214355	8379.861328	6417.154297	72.428650
359.161163	1263.963501	8560.639648	6518.503906	72.012794
359.526581	1256.607544	8931.335938	6741.783691	71.470619
359.892029	1254.675659	9428.792969	7055.860840	70.970169
360.257416	1243.010254	9947.723633	7408.278809	70.826790
360.622772	1249.548828	10385.885742	7710.615723	70.718353
360.988098	1248.880127	10632.868164	7910.861816	70.993073
361.353394	1256.904785	10727.529297	7986.799316	71.060722
361.718658	1254.824341	10551.877930	7857.884277	71.023148
362.083893	1243.901855	10170.481445	7552.500000	70.672058
362.449097	1233.053589	9593.967773	7136.330566	70.605637
362.814209	1232.459229	9000.958008	6697.943848	70.354446
363.179382	1236.545898	8412.777344	6279.917480	70.278831
363.544434	1251.777954	8018.229004	5947.784668	69.401329
363.909546	1256.533325	7757.575684	5717.668457	68.621841
364.274536	1257.127808	7629.700684	5587.267578	67.949631
364.639587	1249.474609	7498.927734	5474.847656	67.611885
365.004517	1247.765625	7432.055176	5404.928711	67.221352
365.369507	1255.121582	7386.656250	5337.387207	66.578201
365.734344	1249.771729	7388.142090	5304.843262	66.061043
366.099274	1250.291870	7391.708496	5264.570801	65.364052
366.464081	1238.626343	7374.395996	5225.710449	64.980995
366.828918	1245.759399	7315.919922	5161.587402	64.509468
367.193665	1240.781250	7226.905762	5105.934082	64.568535
367.558411	1245.387939	7145.915527	5044.634277	64.388252
367.923126	1245.387939	7061.358887	4973.526855	64.101746
368.287781	1249.548950	7021.384277	4919.508789	63.583931
368.652435	1255.567383	6973.310547	4861.850098	63.071785
369.017059	1247.617065	7021.458984	4863.632813	62.627548
369.381653	1251.555054	7064.257324	4848.400879	61.879063
369.746185	1249.177368	7151.488281	4855.385254	61.098236
370.110687	1264.855347	7225.419434	4878.270996	60.622040
370.475220	1259.653931	7306.855469	4907.620605	60.324875
370.839661	1258.985229	7362.433594	4935.558105	60.237633
371.204041	1256.161743	7384.947266	4943.359863	60.161972
371.568451	1261.957397	7382.421387	4926.121582	59.867424
371.932770	1267.530151	7356.638184	4890.159180	59.493591
372.297150	1260.545532	7321.864746	4832.648438	58.932766
372.661377	1256.458862	7322.384766	4816.673340	58.692020
373.025696	1246.651001	7363.622559	4810.655273	58.264198
373.389862	1253.784058	7421.207520	4819.943359	57.822514
373.754059	1250.886353	7496.029785	4835.323730	57.395599
374.118225	1255.864624	7616.400879	4878.716309	56.958275
374.482361	1254.007080	7792.571777	4954.207520	56.590408
374.846436	1250.589233	8005.300781	5031.779785	55.978565
375.210510	1251.034790	8274.053711	5161.513184	55.680878
375.574524	1251.406372	8587.833984	5292.806152	55.086754
375.938538	1250.068970	8904.140625	5435.169922	54.678101
376.302460	1247.617065	9150.379883	5543.057129	54.353649
376.666412	1243.679077	9266.589844	5605.619629	54.368553
377.030304	1244.644897	9223.791992	5589.421875	54.451645
377.394196	1244.273315	9087.000000	5504.791016	54.324444
377.757996	1247.022583	8876.722656	5358.638184	53.889610
378.121796	1261.288696	8621.047852	5176.224609	53.193806
378.485565	1255.121582	8348.059570	4988.016113	52.628326
378.849304	1251.406372	8132.209473	4843.273926	52.201286
379.212982	1244.199097	8015.108887	4755.150879	51.853470
379.576630	1243.010132	7968.892090	4680.848633	51.113571
379.940277	1245.536621	7958.638672	4632.552246	50.453808
380.303864	1249.177368	7941.103027	4585.443848	49.855106
380.667450	1257.276367	7956.707031	4569.542969	49.441017
381.030945	1259.431030	7956.632813	4544.354980	49.049198
381.394501	1253.858276	7997.052734	4545.097168	48.808304
381.757935	1263.294800	8051.294434	4539.004883	48.257370
382.121399	1260.322754	8139.789063	4543.908691	47.730244
382.484741	1264.780884	8295.973633	4587.970215	47.263523
382.848145	1255.864624	8434.547852	4614.496094	46.786175
383.211487	1255.567505	8541.097656	4648.824219	46.575291
383.574768	1249.400269	8609.010742	4643.920410	46.123638
383.938019	1248.954468	8671.127930	4639.462402	45.680794
384.301270	1249.623169	8704.490234	4618.582520	45.191410
384.664459	1248.211548	8714.297852	4582.694824	44.661732
385.027649	1243.158936	8711.250977	4561.369629	44.431843
385.390778	1237.289063	8858.518555	4570.286133	43.733063
385.753876	1238.552124	8963.063477	4583.289063	43.300304
386.116943	1244.719238	9057.874023	4600.452637	42.949787
386.479980	1246.502441	9053.266602	4584.180664	42.753670
386.842987	1250.514771	9083.507813	4573.332520	42.420795
387.205994	1250.737671	9091.681641	4548.887207	42.063168
387.568909	1249.251587	9069.166992	4515.079102	41.762955
387.931793	1248.805786	8992.487305	4457.048828	41.430462
388.294678	1243.753174	8940.401367	4400.430176	41.013657
388.657471	1251.406372	8942.926758	4360.380859	40.420807
389.020294	1245.090698	9036.250977	4350.275879	39.855232
389.383057	1248.434448	9215.469727	4371.749023	39.202972
389.745819	1241.004028	9412.296875	4421.754395	38.925915
390.108521	1248.731567	9637.731445	4484.169434	38.567623
390.471191	1245.759399	9898.311523	4564.267578	38.352943
390.833801	1247.542603	10131.473633	4617.394043	37.931988
391.196442	1244.347656	10292.709961	4641.913574	37.548958
391.558960	1248.880127	10336.772461	4620.143066	37.096203
391.921509	1252.372437	10299.323242	4568.651855	36.656319
392.284027	1247.096802	10250.580078	4528.527832	36.446239
392.646484	1245.165039	10222.271484	4475.401855	35.983051
393.008911	1247.839966	10210.754883	4438.101563	35.594021
393.371307	1256.756226	10217.590820	4401.321777	35.092327
393.733673	1257.053345	10158.817383	4358.969238	34.846085
394.096008	1253.561279	10065.493164	4308.963379	34.673466
394.458344	1252.892578	9924.168945	4256.208496	34.635223
394.820587	1252.372437	9715.452148	4171.503418	34.492535
395.182831	1253.189697	9511.565430	4082.860107	34.264248
395.545013	1246.502441	9263.989258	3961.003662	33.857258
395.907196	1247.468384	9097.921875	3876.669922	33.491081
396.269287	1246.056641	8998.876953	3814.850342	33.133667
396.631409	1251.555054	8970.938477	3772.943359	32.663078
396.993469	1249.028809	8967.075195	3747.308838	32.369331
397.355530	1253.486816	8959.942383	3722.269287	32.035252
397.717499	1254.824341	9019.161133	3736.906494	31.967728
398.079468	1253.635498	9061.736328	3742.776611	31.878958
398.441376	1251.406372	9108.695313	3729.996826	31.545109
398.803284	1250.143188	9064.931641	3702.430420	31.380083
399.165131	1251.257813	9037.737305	3670.108398	31.064753
399.526978	1249.400269	8996.573242	3648.486328	30.967245
399.888763	1234.614014	8988.399414	3621.217529	30.779852
400.250519	1235.654175	9006.380859	3603.013428	30.465097
400.612244	1237.660400	9042.045898	3612.895752	30.434622
400.973938	1249.103027	9134.850586	3620.102783	30.066898
401.335602	1245.462280	9215.543945	3634.294678	29.972498
401.697205	1242.787231	9357.981445	3656.288330	29.740520
402.058807	1244.496216	9504.729492	3688.238281	29.584421
402.420349	1247.394043	9742.720703	3751.247314	29.473303
402.781860	1255.121582	9964.737305	3796.719971	29.181522
403.143341	1250.440552	10177.168945	3852.595947	29.150156
403.504822	1253.635498	10352.672852	3890.564453	28.980309
403.866241	1248.657227	10481.663086	3922.811768	28.962990
404.227631	1252.075195	10580.484375	3928.607666	28.692272
404.588959	1246.353882	10579.147461	3908.174561	28.521156
404.950287	1239.220825	10534.342773	3868.348389	28.285023
405.311554	1241.672729	10438.937500	3828.967773	28.131134
405.672821	1247.691406	10332.833984	3794.565430	28.033396
406.034027	1252.223755	10211.645508	3759.123047	27.980593
406.395203	1251.035034	10036.811523	3703.841797	27.917927
406.756348	1248.285767	9926.917969	3644.473877	27.610205
407.117493	1253.561157	9867.698242	3617.205078	27.439129
407.478516	1252.149536	9909.828125	3596.548828	27.078846
407.839600	1256.682007	9972.317383	3597.960205	26.862967
408.200592	1250.291870	10109.553711	3594.839844	26.464371
408.561554	1251.852173	10256.153320	3606.431396	26.149494
408.922485	1246.576782	10412.040039	3622.926514	25.927219
409.283417	1250.291870	10503.656250	3627.161377	25.686546
409.644257	1252.075195	10580.261719	3642.913330	25.630257
410.005096	1254.973022	10627.741211	3648.114502	25.532921
410.365906	1247.542725	10595.270508	3634.443115	25.534552
410.726715	1248.508667	10555.518555	3592.536377	25.185617
411.087433	1249.846069	10477.575195	3539.781494	24.815807
411.448120	1253.561279	10433.141602	3484.872070	24.307329
411.808807	1250.886230	10398.219727	3464.364502	24.198071
412.169434	1247.691284	10384.697266	3426.247314	23.843218
412.530029	1252.149536	10449.710938	3436.129639	23.745207
412.890564	1252.298096	10526.318359	3424.835205	23.426054
413.251099	1259.431152	10669.424805	3445.194336	23.228104
413.611572	1254.378540	10819.516602	3446.234375	22.915049
413.972076	1251.629395	10997.026367	3463.992920	22.701626
414.332489	1241.078247	11132.182617	3474.692627	22.582050
414.692871	1240.483887	11331.239258	3494.457031	22.337009
415.053223	1242.118530	11504.663086	3497.577881	21.977585
415.413574	1240.038086	11772.450195	3514.667236	21.596470
415.773834	1238.403442	11986.812500	3533.020264	21.348431
416.134094	1236.397339	12251.702148	3580.425049	21.279737
416.494263	1241.375610	12520.454102	3617.799561	21.069309
416.854462	1244.867798	12897.391602	3659.928955	20.725649
417.214630	1251.183594	13295.952148	3695.817383	20.296228
417.574738	1250.143311	13692.877930	3749.760986	20.088974
417.934784	1246.205200	14131.708008	3814.999023	19.935535
418.294861	1243.827515	14667.132813	3888.112549	19.699209
418.654846	1244.347656	15290.682617	3967.616943	19.387756
419.014832	1255.938843	15891.049805	4038.947266	19.015970
419.374756	1256.533325	16548.554688	4118.228516	18.713650
419.734680	1258.465210	17211.779297	4215.044922	18.532698
420.094543	1250.291870	17748.320313	4286.672852	18.404507
420.454376	1253.858398	18062.025391	4322.263672	18.255442
420.814148	1257.796387	18194.431641	4315.799316	18.055552
421.173920	1258.167969	18334.640625	4319.365723	17.926405
421.533691	1247.616943	18402.181641	4312.604004	17.866890
421.893341	1243.827515	18435.544922	4284.666504	17.687815
422.253021	1242.861450	18394.308594	4229.533691	17.413530
422.612640	1239.740845	18349.427734	4179.007324	17.178961
422.972260	1234.168091	18361.613281	4145.199707	16.996298
423.331757	1236.694458	18420.089844	4128.259277	16.827669
423.691315	1247.542603	18534.888672	4121.497559	16.624617
424.050781	1249.474487	18536.150391	4087.244141	16.415936
424.410248	1242.415894	18356.412109	4027.281982	16.272449
424.769653	1235.357056	18095.681641	3953.796143	16.123289
425.128998	1234.614014	17700.244141	3880.608154	16.069801
425.488373	1241.078369	17243.654297	3794.862549	15.958582
425.847656	1239.369385	16828.748047	3702.133057	15.797702
426.206940	1238.774902	16436.132813	3618.691162	15.660067
426.566193	1239.740845	16109.350586	3547.955078	15.523033
426.925385	1248.285645	15682.109375	3453.664795	15.279243
427.284576	1251.257813	15285.407227	3362.792236	15.045689
427.643677	1251.629272	14965.608398	3280.688232	14.795552
428.002777	1245.462280	14761.793945	3231.648193	14.694711
428.361847	1245.610718	14557.239258	3186.917969	14.583544
428.720856	1242.935913	14368.733398	3144.045654	14.483766
429.079865	1251.332153	14257.057617	3098.572266	14.203283
429.438812	1258.539551	14247.471680	3062.163818	13.885856
429.797760	1256.607666	14252.598633	3026.572998	13.619318
430.156616	1250.663452	14093.887695	2995.068359	13.582297
430.515503	1242.490112	13964.453125	2968.542236	13.567498
430.874268	1248.062744	13931.090820	2950.115234	13.419922
431.233093	1243.084473	14089.282227	2949.000732	13.279543
431.591827	1244.867798	14318.581055	2948.778076	13.033101
431.950562	1243.901855	14463.247070	2947.737549	12.888956
432.309204	1251.257813	14589.413086	2944.171143	12.692260
432.667877	1254.527222	14731.925781	2942.536133	12.524738
433.026459	1249.548828	14828.816406	2936.666748	12.424219
433.385010	1238.106323	14904.679688	2925.521240	12.347023
433.743561	1235.728394	14866.710938	2904.939209	12.245711
434.102051	1244.793457	14874.141602	2900.481201	12.147961
434.460510	1250.737671	14901.335938	2890.301514	12.010930
434.818939	1247.617065	14921.398438	2872.914795	11.886234
435.177338	1239.443604	14924.296875	2845.348389	11.734906
435.535675	1241.152588	14876.743164	2822.091797	11.594212
435.894012	1242.713013	14903.639648	2811.986328	11.487312
436.252289	1248.062866	15073.495117	2819.639404	11.367287
436.610535	1241.301270	15162.510742	2823.726318	11.367009
436.968719	1245.016357	15455.784180	2836.060547	11.196047
437.326935	1245.387939	15671.855469	2849.955078	11.122384
437.685028	1256.904907	15993.215820	2868.233643	10.934411
438.043152	1258.167969	16156.903320	2867.193359	10.799745
438.401215	1252.446655	16456.939453	2872.097412	10.652449
438.759277	1244.199097	16795.685547	2895.651367	10.619257
439.117249	1240.186646	17329.326172	2945.805664	10.601058
439.475250	1244.644897	17766.597656	2979.985107	10.503239
439.833130	1252.595215	18224.673828	3002.647217	10.311359
440.191071	1254.081421	18371.791016	2996.926514	10.181533
440.548889	1257.127686	18417.861328	2988.009766	10.086294
440.906708	1248.657227	18279.064453	2969.210938	10.102834
441.264496	1250.960571	18078.222656	2950.041016	10.097189
441.622223	1251.926514	17851.525391	2920.171143	10.049909
441.979950	1265.598267	17564.271484	2884.060303	9.930023
442.337616	1263.146362	17361.054688	2843.193359	9.815231
442.695251	1250.811890	17133.314453	2794.451172	9.719118
443.052887	1235.282593	17057.898438	2770.154297	9.700493
443.410461	1233.722290	17137.550781	2770.005615	9.659834
443.768005	1241.301270	17366.921875	2786.872070	9.584566
444.125458	1254.229980	17661.384766	2806.413818	9.460408
444.482941	1257.350708	18000.947266	2829.373291	9.388800
444.840393	1252.149536	18474.330078	2864.369873	9.361302
445.197754	1242.936035	18906.625000	2882.945557	9.284637
445.555084	1239.815308	19266.472656	2912.740967	9.280287
445.912415	1245.090698	19434.841797	2917.050537	9.191769
446.269714	1249.920410	19558.705078	2922.994873	9.138097
446.626953	1248.805786	19592.884766	2907.168213	9.040315
446.984161	1248.137085	19464.341797	2890.004150	9.013223
447.341309	1251.332153	19219.142578	2858.203125	8.943054
447.698456	1258.167969	18886.339844	2816.816406	8.841805
448.055542	1263.517700	18676.435547	2795.639893	8.798768
448.412598	1257.573608	18349.724609	2768.965088	8.842606
448.769653	1255.864624	18042.781250	2739.020752	8.835191
449.126617	1260.619995	17578.166016	2691.467285	8.768765
449.483582	1267.010132	17316.919922	2658.922852	8.672402
449.840515	1264.112305	17031.076172	2634.997314	8.694667
450.197388	1258.242310	16877.712891	2614.043945	8.680202
450.554230	1248.805786	16744.638672	2597.771729	8.705346
450.911041	1248.880005	16689.208984	2586.700439	8.664455
451.267822	1248.731445	16772.130859	2594.799561	8.671220
451.624573	1256.161743	16841.083984	2584.322998	8.522091
451.981262	1257.053467	16787.585938	2567.604736	8.438547
452.337921	1250.737793	16597.146484	2546.502930	8.443442
452.694580	1256.459106	16258.104492	2523.766357	8.447788
453.051147	1253.709839	16032.817383	2504.967773	8.466397
453.407715	1254.527222	15670.963867	2469.005127	8.424258
453.764221	1249.177368	15524.958008	2460.088867	8.482279
454.120728	1253.338257	15227.823242	2429.847412	8.418981
454.477142	1255.121582	15217.866211	2432.968262	8.435639
454.833557	1253.412598	15151.290039	2409.191162	8.316224
455.189911	1251.183594	15213.704102	2409.637207	8.296881
455.546265	1247.022583	15276.639648	2406.145020	8.261968
455.902557	1250.366211	15354.657227	2415.358643	8.259844
456.258820	1252.669556	15563.968750	2436.609131	8.272761
456.615051	1254.007080	15833.166992	2450.875244	8.209445
456.971252	1252.297974	16175.182617	2479.481689	8.223502
457.327393	1248.880249	16764.328125	2513.809570	8.152709
457.683502	1254.824341	17381.115234	2558.465576	8.083950
458.039612	1251.480835	18288.425781	2623.331787	8.052212
458.395630	1253.561157	19156.503906	2692.879150	8.039560
458.751648	1250.440430	19923.234375	2760.717529	8.088116
459.107605	1253.189575	20546.412109	2803.664307	8.036370
459.463562	1249.251587	20684.244141	2811.763672	8.039684
459.819458	1247.988403	20557.482422	2800.766602	8.041527
460.175323	1245.239258	19942.851563	2778.401611	8.199776
460.531158	1241.821411	19233.556641	2751.503906	8.390978
460.886932	1241.152710	18491.943359	2696.445557	8.436093
461.242676	1241.227051	17823.958984	2636.334961	8.413016
461.598419	1245.090698	17335.568359	2589.375488	8.354536
461.954102	1242.638794	16872.513672	2547.542969	8.348782
462.309723	1245.016479	16526.486328	2510.094482	8.278510
462.665344	1243.381836	16213.596680	2474.652100	8.224800
463.020905	1248.359985	16038.390625	2459.717041	8.190362
463.376373	1249.177368	15979.245117	2463.209717	8.241865
463.731873	1261.140015	16013.945313	2465.364502	8.162682
464.087341	1257.722168	16038.836914	2475.618164	8.239541
464.442749	1256.013184	16128.371094	2479.184570	8.224462
464.798126	1251.926636	16220.803711	2485.871826	8.243405
465.153503	1255.938843	16378.102539	2487.655029	8.145105
465.508820	1251.629272	16534.138672	2501.029541	8.175361
465.864105	1251.034912	16631.326172	2519.753906	8.248992
466.219330	1251.703613	16863.375000	2541.450439	8.261427
466.574524	1254.229858	16899.115234	2543.976807	8.243889
466.929657	1252.000854	16774.136719	2526.886963	8.213342
467.284790	1254.006958	16555.611328	2511.654785	8.219059
467.639893	1257.276367	16340.729492	2485.648926	8.143842
467.994934	1253.932739	16188.780273	2469.822510	8.141294
468.349945	1253.932739	16007.481445	2463.284180	8.197021
468.704926	1252.595337	15832.870117	2456.745361	8.258761
469.059875	1251.109253	15664.351563	2449.760498	8.316319
469.414764	1251.257690	15538.557617	2431.036377	8.257534
469.769653	1249.846069	15511.584961	2425.092041	8.240552
470.124451	1254.601440	15592.872070	2425.983643	8.169620
470.479248	1249.846069	15710.791992	2431.333496	8.170195
470.834015	1247.765503	15809.242188	2446.863037	8.234725
471.188721	1248.285645	16055.778320	2472.571533	8.268017
471.543365	1251.257813	16313.385742	2491.816162	8.236276
471.898010	1254.601440	16581.025391	2498.503174	8.116060
472.252625	1254.229858	16805.640625	2512.992188	8.094200
472.607178	1252.818115	17019.037109	2535.951904	8.138500
472.961700	1257.202026	17099.730469	2553.933105	8.185127
473.316193	1250.514771	17141.117188	2566.044434	8.278665
473.670654	1247.245605	17080.562500	2567.456299	8.338181
474.025055	1241.004028	17152.560547	2578.155762	8.403651
474.379456	1248.137085	17210.888672	2579.121826	8.338066
474.733795	1246.056641	17365.363281	2587.369141	8.321155
475.088104	1248.359985	17641.398438	2604.013184	8.269688
475.442383	1246.576782	18000.800781	2636.186279	8.294085
475.796570	1243.158813	18325.056641	2667.244873	8.336814
476.150787	1247.914185	18731.492188	2710.043213	8.362870
476.504944	1245.239258	19086.958984	2737.238037	8.362416
476.859070	1253.263916	19420.427734	2770.822998	8.353308
477.213135	1246.353882	19627.138672	2804.555908	8.477342
477.567200	1251.926636	19891.580078	2830.413330	8.468433
477.921173	1259.728394	20163.232422	2846.537109	8.394258
478.275146	1259.802612	20448.406250	2852.852783	8.302064
478.629089	1255.641724	20718.050781	2873.286377	8.311637
478.983002	1245.239258	21165.947266	2903.230469	8.322953
479.336823	1246.353882	21663.181641	2945.656982	8.323051
479.690643	1251.257813	22345.056641	2997.223389	8.277151
480.044403	1258.019409	23177.767578	3072.417236	8.277457
480.398163	1256.533325	24372.482422	3164.404297	8.253483
480.751862	1255.493164	26012.712891	3294.879639	8.237543
481.105499	1251.183472	28224.111328	3473.132080	8.237700
481.459137	1254.973022	31458.212891	3738.169922	8.221623
481.812744	1250.291992	35694.210938	4089.993408	8.244420
482.166290	1245.982300	40684.382813	4520.577637	8.303062
482.519806	1236.545898	45624.324219	4979.322266	8.431997
482.873291	1238.775024	49761.203125	5396.234863	8.568120
483.226715	1242.267212	52484.769531	5696.343750	8.692153
483.580139	1247.765625	53447.363281	5817.382813	8.754124
483.933502	1251.183472	52700.097656	5747.910156	8.740178
484.286804	1251.629395	50591.238281	5551.378906	8.714600
484.640106	1252.743896	47609.250000	5277.945313	8.683142
484.993347	1249.251587	44690.562500	5021.601074	8.683784
485.346558	1250.366089	42552.425781	4819.423340	8.641355
485.699738	1252.446655	41674.019531	4737.244629	8.621134
486.052887	1256.458984	41904.433594	4758.866211	8.616437
486.405975	1256.756226	42838.640625	4840.153809	8.617689
486.759064	1245.759399	43759.472656	4920.920410	8.644649
487.112061	1238.254761	44210.792969	4966.171387	8.675114
487.464996	1235.357056	43829.167969	4942.022949	8.702358
487.817963	1240.409668	42671.457031	4838.295898	8.684034
488.170868	1249.771851	40835.660156	4690.804688	8.692575
488.523743	1247.765625	38858.167969	4523.475098	8.709583
488.876587	1248.954468	37074.753906	4377.247559	8.731956
489.229401	1241.598511	35983.546875	4250.635742	8.661106
489.582153	1241.598511	35748.972656	4219.949219	8.631055
489.934845	1249.251709	36398.449219	4262.673340	8.573230
490.287537	1249.474609	37667.761719	4393.892090	8.634171
490.640198	1253.115601	38849.847656	4498.584473	8.632317
490.992798	1252.075195	39445.457031	4567.760254	8.681308
491.345337	1248.880249	39107.531250	4540.119141	8.693492
491.697876	1248.211426	37765.175781	4454.225098	8.779518
492.050354	1238.329224	35771.484375	4300.195801	8.866455
492.402832	1238.031860	33188.574219	4098.909668	8.954082
492.755219	1240.112427	30605.365234	3861.809570	8.927890
493.107605	1247.839844	28237.115234	3662.083984	8.945198
493.459930	1255.418823	26426.953125	3500.178467	8.917850
493.812225	1258.539551	25147.531250	3392.068115	8.931011
494.164490	1257.053589	24475.539063	3311.152344	8.846824
494.516724	1247.171265	24195.939453	3281.208252	8.863382
494.868896	1244.050415	24244.681641	3280.242188	8.852765
495.221039	1244.942017	24398.859375	3298.520508	8.869249
495.573120	1251.183472	24589.521484	3310.854736	8.825271
495.925201	1250.960571	24788.798828	3335.597900	8.856537
496.277222	1246.874023	24960.216797	3350.012451	8.869008
496.629211	1247.097046	25012.748047	3352.464600	8.858869
496.981140	1247.914185	24909.093750	3334.185791	8.817276
497.333069	1250.217651	24640.265625	3314.792969	8.826725
497.684967	1250.366089	24275.664063	3291.090576	8.862967
498.036804	1249.920288	23814.320313	3263.672607	8.924466
498.388580	1246.873901	23346.583984	3231.945313	8.982341
498.740326	1246.576782	22934.203125	3198.732178	9.001240
499.092072	1245.313599	22509.193359	3168.490967	9.044339
499.443756	1245.685059	22072.740234	3128.515869	9.040313
499.795410	1241.598511	21679.230469	3101.246826	9.099137
500.147003	1244.644897	21375.257813	3081.854248	9.126445
500.498566	1246.428101	21137.191406	3063.203857	9.133766
500.850098	1248.731445	20931.892578	3053.693359	9.170082
501.201599	1243.010132	20810.853516	3040.764404	9.187288
501.553009	1244.124634	20761.072266	3039.501221	9.199064
501.904449	1247.022583	20777.791016	3029.916260	9.128641
502.255859	1252.075195	20847.189453	3035.415039	9.100942
502.607178	1257.424927	20905.517578	3039.278564	9.068838
502.958405	1260.768433	20941.033203	3041.210205	9.046838
503.309692	1262.180298	20977.740234	3035.934814	8.996724
503.660919	1257.276367	21052.562500	3042.399170	9.017920
504.012115	1259.951294	21065.566406	3039.204346	8.983579
504.363251	1259.208130	21018.533203	3029.693359	8.960252
504.714294	1262.180298	20891.623047	3012.826904	8.918473
505.065369	1251.109253	20835.226563	3027.464111	9.070385
505.416443	1248.211426	20713.962891	3030.807861	9.157604
505.767395	1247.022583	20731.871094	3038.163818	9.192483
506.118317	1249.846069	20650.806641	3037.420898	9.213847
506.469238	1246.353638	20781.580078	3053.841797	9.252456
506.820160	1246.130859	20922.384766	3064.615967	9.242029
507.170929	1250.440430	21206.740234	3072.640381	9.130951
507.521729	1253.041138	21459.146484	3090.770264	9.094920
507.872498	1252.966919	21689.707031	3123.314697	9.151889
508.223236	1250.737671	21954.150391	3137.358154	9.112607
508.573883	1253.784180	22216.212891	3157.197021	9.080115
508.924500	1246.576782	22483.779297	3166.930664	9.042405
509.275116	1243.753296	22638.478516	3182.385498	9.061263
509.625702	1244.496216	22783.146484	3196.205811	9.061429
509.976196	1248.137085	22904.927734	3204.527588	9.033612
510.326660	1247.096924	23105.843750	3236.477783	9.101075
510.677124	1247.765625	23253.781250	3259.065674	9.139773
511.027557	1252.520874	23417.916016	3284.774658	9.168589
511.377869	1258.911011	23517.406250	3289.010010	9.120558
511.728180	1252.149292	23591.708984	3294.954102	9.144338
512.078430	1247.765503	23519.708984	3293.542236	9.185443
512.428650	1237.363159	23424.007813	3288.638428	9.245542
512.778931	1245.090698	23235.279297	3266.793213	9.193657
513.129028	1245.090698	23125.460938	3250.298096	9.164412
513.479126	1251.109253	22990.599609	3240.713135	9.152026
513.829285	1246.799683	22875.353516	3237.369873	9.203436
514.179382	1252.669556	22719.248047	3231.276611	9.217152
514.529297	1259.728394	22721.697266	3227.264648	9.167548
514.879272	1259.579834	22870.451172	3236.403564	9.147358
515.229187	1253.041138	23108.814453	3250.447021	9.139030
515.579163	1244.050659	23495.781250	3275.932861	9.131345
515.928955	1237.586182	23980.087891	3320.811523	9.160053
516.278748	1237.586304	24651.562500	3377.430420	9.139174
516.628540	1239.369385	25376.162109	3469.194092	9.238281
516.978333	1242.564453	26273.443359	3538.741211	9.173376
517.327942	1244.347778	27152.220703	3613.861328	9.145922
517.677612	1242.192871	27840.412109	3678.504639	9.159680
518.027222	1242.861450	28214.599609	3712.386719	9.155974
518.376831	1239.815063	28287.638672	3733.860596	9.220873
518.726379	1248.062744	28048.904297	3698.269531	9.142276
519.075867	1253.709717	27525.367188	3644.623047	9.100733
519.425293	1261.437256	26925.671875	3583.620117	9.048323
519.774658	1256.533325	26296.548828	3529.750977	9.078341
520.124084	1244.273315	25751.244141	3494.828857	9.183329
520.473389	1236.471558	25270.060547	3456.711182	9.238070
520.822693	1234.985474	24932.500000	3434.494873	9.281604
521.171997	1246.799683	24757.072266	3425.578125	9.267345
521.521240	1251.926636	24707.437500	3424.240967	9.261424
521.870361	1251.852173	24823.423828	3429.962158	9.240410
522.219482	1246.056641	24979.015625	3445.416992	9.267114
522.568604	1241.004028	25242.640625	3467.856445	9.277920
522.917664	1245.685181	25703.390625	3502.927490	9.229166
523.266724	1245.685181	26432.005859	3559.174561	9.185499
523.615662	1241.821411	27365.541016	3632.585205	9.151697
523.964600	1242.192871	28414.845703	3728.064453	9.148432
524.313538	1245.982300	29618.845703	3839.518799	9.140905
524.662354	1263.889282	30916.171875	3960.557861	9.094303
525.011169	1265.301025	32143.357422	4078.030518	9.109153
525.359985	1269.610596	33362.441406	4197.658203	9.123681
525.708740	1256.533325	34619.050781	4313.644531	9.163312
526.057434	1256.830566	36221.238281	4447.314941	9.124949
526.406067	1250.588989	38325.347656	4624.229980	9.099564
526.754700	1249.474609	41156.503906	4885.849609	9.112116
527.103333	1254.973022	44524.644531	5208.769531	9.137569
527.451782	1256.904907	47942.566406	5560.592285	9.218435
527.800293	1259.059692	50580.312500	5837.667969	9.283236
528.148743	1252.892456	52030.031250	6021.938965	9.392113
528.497131	1253.784058	51908.769531	6022.458496	9.414028
528.845642	1260.471313	50324.339844	5873.556152	9.402205
529.193909	1251.777954	47517.187500	5582.363281	9.360310
529.542175	1248.062866	44080.832031	5242.651855	9.326011
529.890503	1236.545898	40656.144531	4933.552246	9.378600
530.238770	1242.341431	37739.910156	4654.916504	9.350143
530.586914	1248.434448	35692.203125	4475.475586	9.369012
530.934998	1254.601440	34601.664063	4344.628418	9.266264
531.283142	1254.675659	34591.781250	4348.492676	9.280400
531.631226	1243.827515	35293.050781	4392.405273	9.247135
531.979248	1244.421875	36536.429688	4509.135254	9.250574
532.327148	1245.833740	37745.484375	4609.889160	9.216678
532.675110	1252.669556	38564.074219	4702.173828	9.245173
533.023071	1253.858521	38630.281250	4713.467285	9.256126
533.370850	1245.685181	37865.484375	4658.037109	9.318325
533.718689	1241.969971	36647.738281	4536.403809	9.304793
534.066467	1240.409546	35138.871094	4391.142090	9.294618
534.414246	1246.651001	33713.078125	4241.868164	9.225583
534.761963	1255.344360	32580.255859	4118.302734	9.139558
535.109619	1256.384644	31971.716797	4065.844971	9.146769
535.457153	1256.161621	31776.599609	4050.092529	9.154295
535.804749	1257.350586	31732.240234	4063.912842	9.209425
536.152344	1258.762329	31588.390625	4047.863281	9.195962
536.499817	1259.208252	31202.908203	4027.281982	9.244261
536.847229	1256.087524	30607.966797	3977.201904	9.270664
537.194641	1257.053467	29730.451172	3912.707031	9.326788
537.542114	1257.053467	28811.921875	3828.373291	9.331635
537.889404	1253.635620	28028.177734	3761.575439	9.366882
538.236694	1254.155640	27702.431641	3712.610107	9.295330
538.583984	1252.669556	28020.968750	3723.235107	9.229445
538.931213	1247.988403	28919.140625	3794.863037	9.204079
539.278381	1237.511841	30474.000000	3952.087158	9.284888
539.625488	1236.100220	32484.853516	4132.048828	9.267406
539.972595	1240.558228	34960.992188	4356.814453	9.241448
540.319641	1245.685181	37296.699219	4556.985840	9.185041
540.666687	1246.651001	39018.441406	4721.194824	9.198780
541.013611	1248.508667	39856.574219	4811.101074	9.227586
541.360596	1249.474487	39902.644531	4826.035645	9.252956
541.707458	1249.846069	39131.082031	4764.810547	9.278907
542.054260	1252.297974	37668.285156	4626.384277	9.265398
542.401062	1251.777954	35870.902344	4476.664551	9.315332
542.747864	1254.155640	34007.761719	4310.523926	9.331394
543.094666	1252.149414	32290.998047	4156.865723	9.358325
543.441284	1250.366211	30673.351563	3994.960205	9.328061
543.787903	1249.400269	29389.474609	3883.802979	9.361748
544.134460	1242.267212	28266.462891	3779.630615	9.389228
544.481079	1241.004028	27441.775391	3699.531982	9.383418
544.827637	1239.443726	26856.125000	3634.740234	9.350533
545.174072	1241.969849	26606.320313	3610.666260	9.338683
545.520508	1243.604614	26584.400391	3601.824219	9.306021
545.866943	1243.678955	26516.634766	3585.180664	9.264852
546.213318	1240.632446	26390.841797	3582.654297	9.312138
546.559631	1243.901855	26007.216797	3560.437744	9.354709
546.905823	1246.502441	25430.031250	3527.744385	9.433040
547.252136	1250.440430	24594.572266	3440.661865	9.382320
547.598389	1247.468384	23687.781250	3353.133057	9.383401
547.944458	1253.858398	22803.056641	3267.313477	9.343526
548.290588	1256.682007	21890.099609	3198.212158	9.409639
548.636658	1262.923218	21061.701172	3130.150635	9.431024
548.982727	1250.737671	20414.896484	3075.092529	9.519619
549.328735	1248.731567	19916.250000	3012.752197	9.449679
549.674622	1245.016479	19506.990234	2981.842529	9.510614
550.020569	1248.285767	19210.521484	2942.313477	9.431051
550.366455	1250.291870	19116.751953	2934.511719	9.426712
550.712280	1250.068970	19096.914063	2923.885986	9.378783
551.058044	1250.440552	19143.205078	2934.883057	9.414099
551.403748	1239.220825	19245.740234	2948.778076	9.494102
551.749512	1238.552124	19428.005859	2968.839600	9.512587
552.095154	1233.499512	19562.865234	2979.910400	9.527940
552.440735	1245.908081	19593.404297	2987.043701	9.489773
552.786316	1253.263916	19526.607422	2977.235596	9.434353
553.131897	1255.567383	19333.197266	2961.409424	9.436205
553.477417	1249.103149	19059.464844	2933.694336	9.458489
553.822815	1240.409790	18670.490234	2910.809326	9.583430
554.168213	1242.267212	18350.392578	2885.694580	9.606122
554.513672	1247.765503	18058.310547	2867.267578	9.633846
554.859009	1242.564331	17862.076172	2834.871826	9.580953
555.204285	1238.254883	17642.585938	2803.887451	9.544019
555.549500	1236.174316	17460.025391	2772.606201	9.470204
555.894714	1238.254761	17324.718750	2760.271729	9.461476
556.239990	1239.963745	17217.353516	2754.625000	9.480029
556.585022	1238.477661	17105.677734	2741.027344	9.469533
556.930115	1238.997925	16981.886719	2724.160400	9.433863
557.275146	1249.103027	16863.298828	2709.522705	9.353153
557.620178	1249.251831	16766.781250	2704.396240	9.377423
557.965149	1249.994751	16712.835938	2706.551025	9.419720
558.310059	1245.239258	16609.556641	2708.111572	9.521232
558.654968	1250.143433	16581.693359	2702.761475	9.474698
558.999756	1256.904907	16554.572266	2688.346924	9.357257
559.344604	1252.446655	16627.685547	2689.386963	9.345808
559.689331	1248.954346	16664.242188	2704.024658	9.439138
560.033997	1239.592163	16736.689453	2710.786133	9.493352
560.378723	1243.530396	16828.599609	2721.040039	9.480289
560.723389	1242.713013	16894.804688	2713.981201	9.399818
561.067932	1247.096802	16904.388672	2726.612549	9.449372
561.412476	1247.319824	16856.908203	2714.204102	9.397328
561.757019	1252.892578	16772.353516	2707.962646	9.375777
562.101501	1255.567505	16726.658203	2693.770752	9.296069
562.445862	1244.347656	16654.880859	2700.160645	9.446870
562.790222	1243.084473	16679.177734	2703.281494	9.459628
563.134644	1244.644897	16676.650391	2709.225586	9.490540
563.478943	1258.390869	16772.279297	2703.653076	9.315925
563.823181	1256.310425	16857.503906	2717.324707	9.364759
564.167358	1249.771729	17051.955078	2739.467041	9.427149
564.511536	1249.400269	17311.939453	2771.045654	9.473255
564.855774	1244.347656	17689.025391	2804.556396	9.487621
565.199768	1247.171265	18067.671875	2830.116455	9.410810
565.543823	1241.598511	18376.771484	2858.946045	9.438758
565.887817	1250.737671	18595.072266	2864.147217	9.302228
566.231812	1245.833740	18595.667969	2862.289307	9.316836
566.575745	1243.976196	18464.226563	2848.246094	9.316182
566.919617	1236.025757	18203.498047	2844.382568	9.479059
567.263428	1234.985474	17939.203125	2825.583984	9.522138
567.607239	1231.196045	17720.306641	2806.859375	9.555780
567.950989	1236.620117	17476.521484	2774.686523	9.470910
568.294678	1239.146362	17319.966797	2761.757813	9.468493
568.638367	1242.192871	17198.998047	2747.120361	9.431258
568.981995	1240.706909	17190.826172	2742.587646	9.416110
569.325623	1246.205200	17272.781250	2748.903320	9.376289
569.669128	1254.378540	17411.654297	2762.352295	9.333095
570.012573	1251.480835	17613.240234	2782.414063	9.356776
570.356140	1253.041138	17868.470703	2808.122803	9.359262
570.699524	1250.663452	18145.099609	2826.475586	9.327403
571.042908	1254.452759	18460.882813	2861.620850	9.340508
571.386230	1254.081421	18672.869141	2871.280029	9.284221
571.729492	1256.236206	18823.183594	2884.877686	9.271056
572.072815	1254.453003	18806.984375	2882.648438	9.276129
572.416016	1247.468384	18665.958984	2868.976563	9.309120
572.759094	1237.288940	18455.236328	2862.512451	9.439125
573.102234	1237.957520	18253.800781	2850.103760	9.474383
573.445374	1245.239258	18108.314453	2836.134766	9.434196
573.788391	1243.233154	17957.851563	2817.187744	9.416635
574.131409	1236.917358	17842.312500	2796.308594	9.390871
574.474365	1227.852539	17700.617188	2793.410889	9.503920
574.817261	1242.638794	17538.414063	2784.940186	9.464425
575.160156	1249.846069	17331.333984	2773.869141	9.476878
575.502930	1257.647827	17089.255859	2760.940430	9.495514
575.845703	1250.440552	16891.982422	2732.333984	9.474088
576.188477	1243.530396	16644.701172	2694.439697	9.420773
576.531250	1245.462280	16417.259766	2654.984863	9.290412
576.873901	1239.146362	16091.293945	2615.084229	9.264235
577.216431	1242.787231	15767.855469	2588.706787	9.266184
577.559082	1234.911133	15419.151367	2546.948730	9.249968
577.901611	1239.443726	15113.620117	2519.530762	9.226400
578.244080	1241.524048	14806.674805	2485.871582	9.173120
578.586487	1247.022461	14606.652344	2488.546631	9.293103
578.928955	1255.047241	14425.502930	2497.462891	9.433353
579.271301	1249.697510	14294.655273	2491.964600	9.522967
579.613647	1251.703613	14096.860352	2464.992920	9.445500
579.955872	1243.084595	13948.848633	2432.076660	9.357895
580.298157	1246.279541	13823.277344	2419.222412	9.326096
580.640320	1241.672852	13763.984375	2409.117432	9.322916
580.982483	1244.421997	13722.078125	2397.971924	9.244925
581.324524	1243.901855	13680.023438	2381.773682	9.149733
581.666626	1246.353882	13596.656250	2366.244629	9.067719
582.008728	1250.589111	13518.934570	2355.322021	9.004743
582.350647	1253.784180	13460.235352	2349.154785	8.973702
582.692566	1253.115356	13401.757813	2343.953613	8.979095
583.034424	1242.341431	13347.666992	2328.424316	8.971943
583.376343	1245.685059	13261.030273	2317.650391	8.921636
583.718201	1255.270142	13203.074219	2320.696777	8.917343
584.059937	1270.799316	13102.839844	2324.189209	8.902859
584.401611	1264.260742	13026.381836	2311.557861	8.903982
584.743347	1256.310425	12979.718750	2304.870361	8.944156
585.085022	1251.183594	12983.433594	2301.081055	8.948816
585.426514	1245.239380	12983.062500	2311.037354	9.080030
585.768127	1243.976074	12995.992188	2308.585449	9.058951
586.109619	1235.802856	12970.653320	2305.836182	9.118423
586.451172	1246.353882	12981.725586	2306.356689	9.032545
586.792542	1244.124756	13033.291992	2311.409180	9.053095
587.133850	1244.867676	13102.988281	2313.266846	9.009852
587.475220	1236.917358	13181.897461	2317.353271	9.045104
587.816589	1238.403320	13188.437500	2316.833008	9.024490
588.157776	1245.610718	13264.372070	2321.291260	8.950011
588.498962	1253.041016	13351.084961	2334.814453	8.941722
588.840210	1250.440430	13474.797852	2343.582031	8.942324
589.181335	1253.189697	13558.018555	2354.281494	8.948453
589.522400	1256.607544	13610.995117	2342.913330	8.792874
589.863403	1261.511719	13577.707031	2342.541992	8.777307
590.204407	1252.075195	13489.583008	2326.343994	8.778493
590.545410	1239.889526	13373.597656	2315.049805	8.860937
590.886353	1241.375610	13237.920898	2296.102783	8.791924
591.227112	1241.821411	13146.305664	2280.573486	8.725720
591.567932	1241.821411	13020.437500	2272.845947	8.753359
591.908752	1233.796631	12965.304688	2259.322754	8.741639
592.249512	1235.059692	12949.703125	2264.301270	8.785940
592.590149	1235.951416	13002.382813	2269.353760	8.782632
592.930786	1238.254883	13109.526367	2275.669678	8.738869
593.271423	1239.369385	13215.557617	2274.703369	8.644938
593.612000	1241.747070	13375.010742	2277.229736	8.534246
593.952576	1244.273315	13539.887695	2282.282471	8.442109
594.292969	1238.552124	13734.411133	2296.325439	8.464991
594.633484	1243.158813	13946.471680	2306.356689	8.369453
594.973877	1245.685181	14167.151367	2325.972412	8.360408
595.314209	1250.217651	14418.073242	2347.668945	8.334321
595.654480	1250.217651	14701.909180	2374.789307	8.360076
595.994812	1245.759399	15016.729492	2392.399170	8.326500
596.335022	1246.948242	15290.906250	2406.665283	8.257765
596.675171	1249.400269	15354.954102	2416.101807	8.271221
597.015320	1253.189697	15227.598633	2412.832275	8.298330
597.355408	1252.892578	14913.223633	2389.798584	8.322682
597.695496	1245.313599	14525.958008	2342.170410	8.259063
598.035461	1240.186768	14066.247070	2299.520752	8.259232
598.375366	1249.400269	13602.747070	2258.431152	8.168077
598.715271	1249.251709	13203.593750	2225.738037	8.168466
599.055176	1248.583008	12849.838867	2193.416260	8.144233
599.395081	1245.313721	12594.831055	2174.171875	8.184120
599.734802	1250.737793	12397.781250	2167.930420	8.228125
600.074524	1254.229980	12348.370117	2154.927490	8.118677
600.414246	1248.805786	12290.041992	2149.057617	8.153542
600.753906	1248.805786	12322.437500	2139.398193	8.042460
601.093506	1246.874023	12374.894531	2147.720459	8.095298
601.433044	1245.759399	12546.906250	2148.612061	7.989036
601.772583	1238.403442	12752.575195	2168.673584	8.079350
602.112122	1247.914185	13037.526367	2188.289307	7.976302
602.451538	1245.164917	13384.891602	2221.725586	8.044338
602.790894	1248.805786	13784.937500	2235.843018	7.873539
603.130310	1235.431274	14255.645508	2263.558105	7.896390
603.469604	1236.694458	14660.000977	2284.363037	7.804847
603.808838	1240.558228	15026.016602	2308.139893	7.744260
604.148010	1250.291870	15229.606445	2321.365723	7.661848
604.487305	1258.465210	15318.992188	2327.904297	7.605967
604.826416	1257.945068	15174.473633	2329.167236	7.697481
605.165527	1261.065796	14861.137695	2304.944580	7.675539
605.504456	1258.242310	14408.411133	2269.056396	7.686700
605.843445	1256.756226	13961.333008	2225.515381	7.625277
606.182434	1250.812012	13546.203125	2182.568115	7.578093
606.521423	1253.784180	13192.671875	2149.652100	7.503780
606.860229	1252.446655	12873.690430	2126.618164	7.522185
607.199036	1250.440552	12662.817383	2115.770020	7.582377
607.537903	1247.691284	12586.807617	2112.351807	7.625467
607.876648	1255.567383	12666.979492	2113.169434	7.515302
608.215271	1254.378540	12826.506836	2117.479004	7.458442
608.553955	1249.623169	13076.312500	2117.850342	7.341253
608.892578	1241.375488	13253.598633	2131.893799	7.413435
609.231140	1248.434448	13369.734375	2144.822266	7.395146
609.569641	1255.121582	13346.403320	2150.766602	7.407362
609.908081	1256.236206	13275.666992	2135.311523	7.313785
610.246521	1250.440552	13064.944336	2107.448242	7.253861
610.584961	1245.090820	12767.137695	2079.584717	7.242584
610.923340	1240.038086	12420.293945	2050.383545	7.248004
611.261597	1240.112305	12088.680664	2034.705688	7.324408
611.599854	1239.963745	11815.321289	2008.996948	7.271936
611.938110	1243.604614	11566.555664	1980.390259	7.137355
612.276245	1239.443726	11341.195313	1961.666016	7.149476
612.614319	1238.477783	11140.652344	1940.861328	7.093225
612.952393	1238.403442	10946.796875	1939.449707	7.221033
613.290466	1245.610840	10836.679688	1921.691406	7.049064
613.628479	1247.022583	10715.343750	1917.901855	7.085515
613.966370	1250.366211	10637.920898	1896.428345	6.882113
614.304260	1250.068970	10533.970703	1876.515137	6.747661
614.642151	1259.431152	10454.095703	1856.230591	6.490715
614.979980	1263.592041	10381.353516	1858.236816	6.521829
615.317749	1263.963501	10354.010742	1871.982788	6.688847
615.655396	1258.985229	10324.734375	1882.385132	6.876430
615.993164	1255.715942	10337.143555	1871.759766	6.783557
616.330811	1255.047241	10328.003906	1859.499878	6.662135
616.668396	1257.350708	10320.945313	1845.456665	6.488661
617.005859	1250.812012	10308.239258	1840.404175	6.509488
617.343445	1246.576782	10311.954102	1835.054321	6.491485
617.680908	1238.775024	10338.108398	1836.986328	6.574233
618.018311	1244.124756	10329.787109	1836.466187	6.519518
618.355652	1251.257813	10297.613281	1849.023315	6.607805
618.692993	1259.876831	10207.485352	1848.651733	6.580249
619.030273	1264.260864	10178.135742	1848.428711	6.553467
619.367554	1266.415527	10132.588867	1828.738647	6.342342
619.704712	1255.493042	10157.405273	1822.125610	6.365291
620.041870	1246.428101	10142.618164	1818.336304	6.428687
620.379028	1239.666504	10103.460938	1807.116577	6.401886
620.716064	1242.564453	10060.811523	1795.450806	6.269799
621.053040	1244.124878	10014.891602	1792.107422	6.247829
621.389954	1243.604614	9987.102539	1797.531616	6.335302
621.726929	1242.341431	9977.517578	1803.698608	6.426398
622.063843	1243.604614	9976.477539	1792.850586	6.289408
622.400635	1246.056763	10029.008789	1797.160034	6.274693
622.737427	1251.629395	10037.406250	1791.958618	6.150044
623.074219	1247.839966	10078.495117	1803.772827	6.295488
623.410889	1248.359985	10113.714844	1785.940063	6.063830
623.747559	1246.576660	10176.649414	1788.763672	6.071474
624.084167	1250.068970	10232.971680	1770.782593	5.796719
624.420715	1245.759277	10313.069336	1777.246704	5.861578
624.757324	1246.130981	10398.963867	1776.578125	5.795442
625.093750	1245.908081	10539.469727	1790.398438	5.858791
625.430176	1248.137207	10723.219727	1801.320923	5.838300
625.766602	1247.468384	10911.800781	1812.614868	5.847755
626.102905	1250.143433	11078.387695	1814.398071	5.741154
626.439209	1247.617065	11171.488281	1819.302124	5.760706
626.775452	1242.267212	11248.390625	1817.667603	5.750483
627.111694	1235.877197	11229.592773	1812.615112	5.771006
627.447876	1237.066040	11149.940430	1798.125977	5.659912
627.783997	1247.691284	11008.096680	1787.872070	5.534410
628.120056	1250.812012	10874.054688	1784.899902	5.549979
628.456055	1248.583008	10713.486328	1776.206665	5.574528
628.792053	1241.672729	10564.805664	1757.333618	5.530983
629.128052	1241.747070	10380.238281	1746.782715	5.526466
629.463928	1245.016357	10244.264648	1742.250366	5.525284
629.799744	1240.706787	10109.702148	1733.854004	5.560350
630.135559	1242.267212	10024.106445	1723.897461	5.484389
630.471375	1247.988525	9918.373047	1721.965454	5.466619
630.807068	1249.474609	9825.048828	1721.891235	5.508863
631.142700	1249.474731	9738.412109	1714.683960	5.480182
631.478333	1241.598511	9688.034180	1694.101929	5.357330
631.813965	1241.672729	9666.115234	1694.770874	5.378376
632.149475	1241.375610	9661.210938	1684.814087	5.266593
632.484924	1240.558228	9673.991211	1691.129883	5.342684
632.820435	1238.180542	9671.168945	1690.387085	5.362352
633.155884	1231.344604	9699.179688	1700.566406	5.541225
633.491150	1231.121704	9729.867188	1697.668579	5.489597
633.826477	1238.552002	9745.692383	1690.906860	5.317355
634.161804	1246.874023	9691.972656	1686.671875	5.207729
634.497009	1249.325928	9579.551758	1679.315918	5.161805
634.832153	1248.211426	9493.658203	1668.765015	5.100434
635.167297	1238.031860	9431.913086	1661.557617	5.168806
635.502380	1229.412842	9379.008789	1668.318970	5.385618
635.837463	1237.140259	9272.756836	1663.266479	5.302969
636.172424	1245.239380	9175.791992	1653.681274	5.150232
636.507324	1253.338379	9095.024414	1632.430786	4.834322
636.842224	1251.777954	9032.610352	1625.966431	4.809106
637.177124	1257.573486	8941.440430	1623.737305	4.765358
637.511963	1264.409302	8846.110352	1622.622681	4.724710
637.846741	1255.121582	8757.987305	1617.495728	4.829810
638.181396	1253.412598	8680.711914	1612.591797	4.835933
638.516113	1252.966797	8615.995117	1609.396851	4.840808
638.850769	1256.013306	8553.284180	1603.972778	4.768351
639.185303	1257.573608	8472.665039	1596.171021	4.692905
639.519836	1250.291992	8407.278320	1595.725220	4.826518
639.854370	1249.846069	8356.678711	1597.954468	4.898221
640.188843	1245.387817	8295.303711	1594.016235	4.945143
640.523254	1250.663330	8234.598633	1579.973145	4.715247
640.857605	1251.777954	8160.296387	1580.047363	4.751661
641.191895	1252.521118	8148.705078	1586.214478	4.838812
641.526184	1256.756226	8123.738770	1596.542603	4.948118
641.860413	1259.579712	8088.667969	1593.570313	4.890706
642.194580	1262.997681	8042.303223	1582.647949	4.715088
642.528748	1256.013184	7985.164551	1573.211548	4.713794
642.862793	1251.926636	7968.893066	1569.942017	4.734509
643.196838	1249.846069	7929.289063	1572.914185	4.836752
643.530823	1244.867798	7902.094238	1562.883423	4.776999
643.864746	1249.400269	7865.611816	1560.728638	4.705538
644.198669	1249.400269	7866.279785	1555.304565	4.623090
644.532532	1254.006958	7879.283203	1561.471680	4.640783
644.866333	1245.982300	7898.898926	1555.378906	4.650541
645.200073	1239.369385	7912.347656	1556.642090	4.754589
645.533813	1241.969971	7951.579590	1556.270508	4.684334
645.867554	1240.186646	7966.365723	1554.487305	4.672796
646.201172	1239.517944	7977.511719	1555.230347	4.685555
646.534729	1236.917358	7961.388184	1561.025879	4.819837
646.868225	1239.369385	7975.580078	1568.976196	4.893060
647.201782	1242.638672	7946.453125	1571.799805	4.910058
647.535217	1243.679077	7908.781738	1565.929810	4.834895
647.868591	1249.623169	7859.222168	1557.310669	4.655161
648.201965	1256.756226	7840.943848	1549.880493	4.451943
648.535278	1261.957397	7851.048340	1547.874390	4.339248
648.868591	1268.198853	7884.039063	1554.338501	4.325069
649.201782	1261.065796	7889.091309	1554.189941	4.422496
649.534912	1247.616943	7885.524902	1556.493286	4.653218
649.868103	1238.997925	7873.265137	1555.155884	4.765530
650.201172	1243.233032	7907.964844	1559.762695	4.749323
650.534180	1252.520996	7909.005371	1562.140503	4.651397
650.867188	1251.926636	7913.239746	1560.059937	4.625714
651.200134	1254.304321	7907.369629	1562.214722	4.628098
651.533020	1252.744019	7909.673340	1572.839966	4.808463
651.865845	1254.675781	7889.983887	1583.316772	4.952912
652.198608	1250.217651	7842.578125	1583.316772	5.052805
652.531433	1250.960571	7786.257324	1578.858521	5.017338
652.864136	1246.502441	7739.817871	1564.592407	4.898730
653.196777	1376.903687	7844.732910	1696.999878	4.949051
653.529358	1382.030640	7801.934082	1687.266235	4.754520
653.861938	1380.098633	7721.389160	1694.250610	4.954070
654.194519	1250.663452	7503.608887	1553.818481	4.848196
654.526978	1242.044312	7476.562500	1547.725586	4.903046
654.859375	1238.774902	7474.036621	1540.443970	4.838114
655.191833	1247.616821	7497.292969	1539.329468	4.667644
655.524170	1252.595215	7493.800781	1551.737915	4.793027
655.856445	1264.335083	7501.380371	1556.418945	4.683049
656.188660	1256.756226	7528.351563	1567.861694	4.960547
656.520874	1253.784058	7582.072754	1560.728516	4.850355
656.853088	1239.146362	7659.199219	1566.970093	5.106246
657.185181	1230.973145	7710.021484	1561.397461	5.099890
657.517212	1228.446899	7795.692871	1574.474609	5.268992
657.849243	1239.518066	7928.323730	1583.836792	5.147686
658.181274	1245.610840	8126.265625	1601.743774	5.175858
658.513123	1249.177368	8324.876953	1609.173950	5.087788
658.844971	1246.130859	8490.422852	1618.833374	5.144775
659.176819	1250.737671	8569.110352	1625.297485	5.118075
659.508667	1251.480591	8603.661133	1628.492676	5.127895
659.840393	1259.505371	8549.791016	1626.932495	5.039955
660.172058	1256.756226	8467.760742	1619.204956	5.026328
660.503662	1253.115356	8316.332031	1615.564087	5.131496
660.835266	1254.675659	8165.349121	1619.204712	5.274870
661.166931	1255.864624	7982.861816	1617.050171	5.369195
661.498413	1257.053467	7814.417480	1615.415405	5.465030
661.829773	1251.703735	7614.840332	1603.378296	5.526749
662.161194	1252.075195	7476.488281	1597.062500	5.542487
662.492615	1250.812012	7356.712402	1584.728394	5.468749
662.823975	1254.973022	7326.916504	1572.468384	5.228892
663.155212	1255.567383	7254.917480	1575.143433	5.326845
663.486450	1262.551880	7174.075684	1573.583008	5.261437
663.817627	1260.471313	7050.585449	1566.970093	5.293484
664.148743	1255.047241	6974.201660	1561.100098	5.351366
664.479858	1251.852173	6925.830566	1566.301270	5.541951
664.810913	1251.034790	6910.673340	1582.499390	5.856639
665.141907	1255.493042	6866.611328	1578.561157	5.757642
665.472778	1255.121582	6831.392090	1583.168091	5.882902
665.803711	1246.130981	6800.481934	1579.007202	5.993071
666.134583	1241.375488	6819.206543	1583.688110	6.137020
666.465454	1246.725342	6825.596191	1577.744141	5.933437
666.796143	1252.075195	6830.128906	1576.406616	5.814419
667.126831	1249.177368	6830.351563	1575.886353	5.853768
667.457458	1241.152710	6834.066895	1576.332397	5.992935
667.788147	1246.428101	6838.673340	1574.326172	5.863442
668.118774	1255.195801	6832.432129	1576.406616	5.759319
668.449219	1255.344604	6837.261719	1578.486938	5.789093
668.779663	1249.251587	6835.107422	1581.533569	5.948631
669.110107	1246.799683	6829.534668	1578.784180	5.946629
669.440552	1247.988647	6843.206543	1579.155640	5.918751
669.770874	1250.068970	6817.571777	1584.356812	6.004269
670.101135	1254.973022	6783.689941	1589.929688	6.058488
670.431396	1252.149536	6709.981934	1590.598267	6.201157
670.761597	1256.756226	6684.867188	1590.152710	6.142035
671.091797	1249.177368	6649.275879	1590.524048	6.321119
671.421875	1254.006958	6585.599121	1593.273438	6.363324
671.751892	1250.514771	6526.156250	1594.165039	6.513905
672.081909	1248.137085	6466.714355	1595.873901	6.663441
672.411865	1250.886353	6437.216309	1601.595337	6.762180
672.741821	1254.750122	6386.987793	1604.790161	6.820417
673.071716	1257.573608	6401.848145	1609.768555	6.846348
673.401550	1252.000854	6386.393066	1611.180176	6.995557
673.731262	1249.920410	6396.052246	1616.084106	7.115319
674.060974	1250.960571	6343.000488	1617.421509	7.196741
674.390625	1252.669678	6333.712402	1620.022095	7.229862
674.720276	1247.319702	6294.406250	1619.056274	7.365370
675.049927	1246.205200	6274.493652	1615.935547	7.353006
675.379395	1245.685059	6277.093750	1610.660034	7.253932
675.708923	1249.994629	6281.849121	1603.898438	7.033268
676.038330	1245.982300	6269.589355	1603.824219	7.123207
676.367737	1250.811890	6226.642090	1598.920288	6.995986
676.697083	1250.366089	6201.974121	1600.926392	7.079727
677.026428	1258.613770	6181.986328	1607.390747	7.084107
677.355652	1246.428223	6204.351563	1623.143066	7.598238
677.684875	1239.740967	6242.320313	1640.678345	8.014613
678.013977	1231.641968	6315.062500	1644.987915	8.131256
678.343079	1233.871094	6377.699707	1652.046753	8.129658
678.672180	1234.316772	6427.260254	1647.514282	7.956904
679.001221	1240.706909	6500.373535	1667.278687	8.110244
679.330139	1243.158813	6580.174316	1670.845337	8.013590
679.659058	1251.777954	6663.244629	1686.597534	8.035151
679.987976	1248.211304	6733.089844	1689.420898	8.044109
680.316772	1254.006958	6768.605957	1702.795410	8.138188
680.645630	1248.880127	6786.736328	1709.779907	8.322711
680.974304	1259.208252	6756.123535	1694.845093	7.925115
681.302979	1254.452881	6703.294434	1689.495117	7.984123
681.631653	1251.480835	6637.610840	1688.232056	8.108813
681.960266	1243.679077	6569.697754	1697.817017	8.526781
682.288757	1245.090698	6517.760254	1706.213379	8.745526
682.617249	1251.703613	6463.667969	1696.999878	8.543732
682.945679	1252.298096	6403.557129	1700.863647	8.707882
683.274109	1252.446655	6324.498535	1683.848267	8.505466
683.602478	1251.852173	6230.431641	1679.241577	8.584565
683.930725	1251.926636	6108.649902	1664.306641	8.490911
684.259033	1255.641724	5999.127441	1656.950684	8.460212
684.587280	1256.087402	5917.394531	1649.594727	8.441996
684.915344	1253.189575	5884.255371	1650.189087	8.572530
685.243469	1254.155640	5866.645996	1656.430542	8.721426
685.571533	1253.264038	5855.945801	1660.963013	8.857858
685.899536	1258.688110	5848.589844	1664.975464	8.851766
686.227539	1255.715942	5835.438965	1661.780396	8.866572
686.555420	1249.697388	5848.664063	1668.541992	9.107363
686.883301	1246.725342	5864.193848	1668.021851	9.123971
687.211121	1242.935913	5893.691406	1668.244751	9.144941
687.538940	1244.719238	5899.710449	1676.269409	9.270698
687.866638	1243.530396	5907.289063	1679.910156	9.356825
688.194336	1241.524170	5883.512207	1689.346680	9.647213
688.521973	1238.849243	5841.531250	1686.151733	9.718301
688.849609	1244.867798	5784.838379	1683.328125	9.657779
689.177063	1245.165039	5743.897949	1682.659546	9.724838
689.504578	1251.480713	5688.170410	1676.938110	9.589524
689.832031	1244.719116	5610.152344	1678.869995	9.945196
690.159485	1253.264038	5550.264160	1675.749146	9.832094
690.486816	1250.886230	5490.822266	1674.486206	9.990716
690.814087	1247.319824	5437.546875	1673.074341	10.160655
691.141296	1242.787231	5380.333984	1676.120728	10.473199
691.468506	1241.821289	5369.857910	1668.318970	10.331732
691.795715	1243.678955	5351.653809	1657.916626	10.083745
692.122803	1242.935913	5317.177246	1653.086914	10.066930
692.449829	1241.152710	5267.988770	1658.139282	10.355191
692.776855	1244.644897	5238.044434	1665.718262	10.544233
693.103821	1243.084473	5201.338867	1661.185913	10.562774
693.430664	1248.508423	5172.360840	1650.263550	10.238792
693.757568	1249.177368	5149.029785	1646.399780	10.185575
694.084351	1258.390991	5142.639648	1646.176758	9.983546
694.411133	1266.787109	5123.989746	1658.585327	10.157574
694.737854	1267.753052	5118.640137	1664.603882	10.305439
695.064575	1265.375366	5147.023926	1666.312866	10.329052
695.391174	1259.431152	5149.995605	1665.644043	10.440976
695.717773	1254.675781	5168.051758	1676.492188	10.778836
696.044250	1258.836670	5179.642578	1678.498413	10.703456
696.370789	1255.938843	5240.645020	1690.758423	10.912212
696.697205	1258.539429	5318.588379	1699.823242	10.868929
697.023621	1257.499146	5429.076660	1729.618774	11.317532
697.349915	1254.081421	5594.474609	1747.971558	11.378926
697.676208	1255.344482	5776.813965	1772.119751	11.429365
698.002380	1245.462280	5982.111816	1789.283813	11.481144
698.328674	1244.719116	6178.196777	1812.020508	11.499017
698.654724	1242.564453	6351.396973	1824.206055	11.385020
698.980896	1242.935913	6455.939941	1848.428833	11.615048
699.306946	1251.109253	6440.856934	1859.276978	11.718637
699.632935	1249.177368	6352.882813	1858.088257	11.930760
699.958862	1250.663452	6188.599121	1827.252441	11.676722
700.284729	1244.570435	6020.451660	1812.986328	11.901801
700.610596	1246.205200	5830.385254	1794.930786	11.969983
700.936340	1245.610718	5654.139160	1778.732910	12.092975
701.262146	1238.254761	5461.993652	1757.556519	12.294836
701.587830	1234.465454	5310.712891	1740.912720	12.424350
701.913513	1236.397339	5162.107422	1732.516602	12.637695
702.239075	1243.827515	5068.634277	1710.894409	12.211516
702.564697	1252.669556	4970.108887	1699.303223	12.014551
702.890137	1249.400269	4895.955078	1692.987427	12.164556
703.215698	1249.474487	4832.648926	1695.067993	12.435719
703.541016	1244.421997	4784.724121	1692.170288	12.647177
703.866455	1243.381714	4749.950195	1689.792358	12.730699
704.191711	1240.483887	4720.303223	1684.814087	12.768772
704.517029	1239.592285	4684.341309	1676.640991	12.687389
704.842163	1236.025757	4655.065430	1669.805176	12.687172
705.167419	1241.375488	4617.914063	1665.421265	12.558594
705.492493	1241.375610	4584.849121	1673.445679	12.922790
705.817566	1246.428223	4557.060059	1669.656372	12.783909
706.142578	1245.610840	4548.664063	1671.811157	12.903223
706.467590	1252.966675	4571.326660	1669.136230	12.541423
706.792480	1253.709839	4566.645508	1670.176758	12.570933
707.117371	1248.657227	4571.995117	1676.120972	12.862482
707.442200	1245.462280	4564.713379	1687.117676	13.305875
707.766907	1246.056641	4575.115723	1695.662476	13.505493
708.091675	1254.229980	4570.062988	1690.907227	13.169458
708.416321	1256.013184	4553.791016	1684.219849	12.984703
708.741028	1250.811890	4555.945313	1687.934937	13.225580
709.065552	1250.812012	4560.700684	1692.616089	13.348004
709.390137	1245.462280	4572.960449	1691.798828	13.413578
709.714600	1254.601440	4588.490234	1693.284790	13.158308
710.039063	1248.359985	4623.932617	1703.018433	13.469075
710.363403	1250.812012	4686.198242	1719.439331	13.641183
710.687744	1246.056519	4749.504395	1736.157349	13.989100
711.012085	1248.211304	4807.980469	1742.324585	13.880487
711.336304	1245.016479	4832.872070	1746.113892	13.966488
711.660461	1239.889526	4841.044922	1744.776367	14.020135
711.984619	1244.644897	4821.800781	1747.897095	14.068501
712.308716	1244.347656	4794.531738	1746.559692	14.146085
712.632751	1250.143188	4752.253418	1738.980835	13.958374
712.956726	1248.359985	4702.396973	1734.894165	14.085957
713.280701	1251.183594	4651.127441	1730.881836	14.109005
713.604553	1252.818237	4608.031738	1729.841797	14.217383
713.928467	1250.589233	4584.998047	1728.801392	14.341738
714.252258	1248.657227	4566.942383	1721.816895	14.259162
714.575989	1240.558228	4556.465820	1716.021118	14.338845
714.899719	1238.997925	4547.475098	1716.838501	14.442917
715.223267	1244.793457	4561.815430	1724.491821	14.461718
715.546936	1249.920288	4593.097168	1732.219360	14.426371
715.870422	1250.440552	4591.016113	1731.773438	14.408681
716.193970	1249.474487	4572.664063	1729.990234	14.459475
716.517395	1255.567383	4537.519043	1730.213013	14.462298
716.840820	1259.208252	4507.203613	1727.909790	14.430487
717.164124	1253.264038	4454.894043	1722.708618	14.662675
717.487488	1255.047241	4378.956543	1720.554077	14.901421
717.810730	1254.898560	4319.886230	1713.940918	14.976972
718.133972	1251.852173	4259.626465	1710.448730	15.247040
718.457092	1246.725464	4209.917969	1702.201050	15.371111
718.780212	1240.929810	4150.029785	1693.581909	15.559867
719.103210	1246.725220	4096.457520	1686.002930	15.414701
719.426208	1249.548950	4056.333984	1680.430298	15.351418
719.749207	1250.886353	4018.662354	1683.105347	15.616113
720.072083	1250.812012	3985.671875	1677.606934	15.605733
720.394958	1249.177368	3943.616943	1667.204468	15.514437
720.717773	1250.514771	3887.815430	1655.316040	15.349074
721.040527	1239.517944	3869.833984	1657.099243	15.875709
721.363281	1240.335327	3846.948975	1649.817505	15.709353
721.685913	1238.180542	3847.171875	1648.628784	15.732067
722.008545	1249.103027	3805.042236	1639.043579	15.256253
722.331055	1246.874023	3782.008545	1643.799194	15.656967
722.653503	1247.988403	3756.596924	1639.638062	15.612227
722.976013	1242.787231	3762.094971	1640.826782	15.799562
723.298401	1246.428101	3763.507080	1635.031250	15.438655
723.620789	1244.867676	3759.494873	1638.077759	15.636913
723.943115	1245.462036	3740.770508	1639.192383	15.778824
724.265381	1241.301147	3727.470459	1643.799194	16.189486
724.587585	1243.158813	3727.767578	1642.907349	16.088993
724.909790	1250.217651	3725.910156	1637.260376	15.633717
725.231873	1253.041016	3741.513672	1632.133667	15.233949
725.553894	1254.452759	3765.216064	1641.049927	15.397595
725.875916	1294.427734	3834.466064	1677.458374	15.079719
726.197937	1290.563965	3843.307861	1688.975220	15.607177
726.519775	1295.616455	3846.949219	1687.414673	15.356610
726.841675	1251.777954	3823.395264	1660.145630	15.879801
727.163513	1255.790161	3845.166016	1672.331421	16.086550
727.485291	1249.028687	3885.586670	1680.355957	16.359484
727.806946	1253.858398	3926.527344	1691.501343	16.374754
728.128662	1256.904663	3941.759033	1690.535645	16.151005
728.450256	1261.660156	3935.666748	1688.380859	15.958102
728.771790	1256.087402	3929.053711	1693.879272	16.378504
729.093323	1255.715942	3916.347656	1693.061890	16.437672
729.414795	1253.932739	3903.641846	1692.244507	16.541883
729.736145	1253.858398	3878.082031	1673.743164	16.000341
730.057495	1250.143188	3879.493896	1674.337524	16.133045
730.378845	1239.443726	3890.119141	1678.647095	16.569490
730.700134	1236.322876	3904.236572	1700.120728	17.384291
731.021301	1230.898804	3930.019531	1709.111328	17.717346
731.342468	1245.462158	3963.752930	1709.334106	17.064838
731.663574	1247.765625	3989.759033	1707.030762	16.749315
731.984680	1248.657227	3991.616455	1700.863647	16.486078
732.305664	1236.248657	3985.895264	1700.640625	16.889153
732.626648	1240.706909	3971.331787	1691.724243	16.517000
732.947571	1240.706787	3972.074951	1693.582031	16.580526
733.268433	1238.923462	3948.000977	1686.671753	16.527702
733.589233	1237.363159	3913.747070	1688.306274	16.848970
733.909973	1241.672729	3880.310791	1691.204102	17.036491
734.230713	1250.143188	3837.884033	1701.309204	17.434746
734.551331	1250.960571	3807.197021	1694.622070	17.356045
734.871948	1244.793335	3761.872314	1681.396118	17.345612
735.192505	1244.942017	3729.996826	1675.897827	17.341904
735.513062	1244.867798	3704.956299	1680.578979	17.711201
735.833435	1250.217651	3673.080811	1667.798828	17.235029
736.153931	1248.657227	3627.458984	1649.520508	16.851479
736.474304	1244.867798	3593.651123	1641.644409	16.892859
736.794617	1240.855469	3570.096924	1641.718750	17.210035
737.114807	1243.381714	3569.799561	1645.433960	17.282030
737.434998	1248.582886	3570.542969	1641.792969	16.934404
737.755188	1251.777954	3590.901611	1656.727905	17.312038
738.075256	1251.480591	3612.821289	1661.408813	17.359978
738.395325	1241.375488	3629.762451	1674.114624	18.118469
738.715271	1238.106201	3639.347656	1673.148560	18.117393
739.035278	1237.065918	3649.600830	1678.944214	18.315933
739.355164	1243.604614	3655.991211	1673.297241	17.811930
739.675049	1245.759399	3637.118164	1661.854492	17.399944
739.994873	1242.490112	3610.443604	1663.192017	17.766476
740.314636	1245.536499	3587.632568	1660.517212	17.718346
740.634277	1242.861694	3562.666748	1655.538940	17.789307
740.953979	1248.657227	3549.069580	1649.891968	17.441862
741.273499	1243.901855	3520.240234	1650.635132	17.867874
741.593140	1247.616943	3498.915039	1658.808228	18.264631
741.912598	1242.564331	3445.268555	1656.504883	18.792381
742.232117	1243.753296	3391.399170	1636.591797	18.291586
742.551453	1238.477661	3365.393311	1626.263672	18.232319
742.870850	1247.022583	3359.597656	1620.393921	17.673754
743.190063	1249.251587	3351.275391	1618.313110	17.557436
743.509338	1254.750000	3329.876221	1616.604126	17.437693
743.828552	1245.759399	3308.774414	1611.625977	17.734556
744.147705	1241.449829	3286.854736	1614.969604	18.261410
744.466797	1238.254883	3270.062744	1608.356812	18.215401
744.785828	1245.016357	3244.577148	1600.629272	17.784552
745.104858	1249.400269	3229.419189	1598.177246	17.614830
745.423706	1247.245483	3205.493896	1595.205078	17.768921
745.742615	1245.387939	3189.072998	1595.428101	18.009098
746.061401	1247.914307	3201.555908	1597.508423	17.894485
746.380249	1253.784058	3194.942627	1599.588867	17.814352
746.698975	1258.019409	3193.679688	1598.994507	17.615440
747.017639	1256.013184	3158.980225	1594.239136	17.773611
747.336304	1258.985352	3143.673828	1597.657104	17.969641
747.654907	1253.932739	3131.042236	1599.514648	18.410322
747.973389	1252.669556	3133.494141	1608.653931	18.927038
748.291931	1251.926514	3138.026611	1607.316406	18.842579
748.610352	1250.143311	3146.868896	1603.973022	18.654766
748.928711	1251.926392	3164.478516	1600.703613	18.236221
749.247070	1256.681763	3179.859375	1603.378418	18.027283
749.565308	1256.756226	3191.673828	1603.898438	17.940929
749.883545	1260.842773	3188.181396	1603.006836	17.753189
750.201782	1255.121460	3177.035889	1601.520874	18.023664
750.519836	1259.282593	3175.029541	1607.316406	18.167004
750.837952	1251.852173	3160.986328	1601.520874	18.315565
751.155884	1240.929810	3146.348877	1589.781128	18.308378
751.473877	1239.220825	3122.274658	1580.195923	18.107559
751.791809	1239.740845	3112.243896	1579.750000	18.158003
752.109619	1252.520996	3106.373779	1588.146484	18.104216
752.427490	1244.867798	3107.711182	1589.929688	18.523397
752.745300	1246.205200	3108.677490	1591.044312	18.515127
753.062988	1241.598511	3111.129639	1593.124634	18.802902
753.380615	1244.199097	3113.952881	1594.610718	18.741056
753.698303	1251.109131	3100.801514	1603.229858	19.036718
754.015808	1252.149414	3106.373779	1599.737671	18.745750
754.333374	1253.561157	3098.126221	1600.703491	18.819738
754.650757	1245.536499	3108.900391	1593.942017	18.697664
754.968262	1250.663330	3093.147705	1600.777832	19.002306
755.285583	1257.499146	3085.048828	1607.316406	19.141327
755.602905	1255.938843	3072.343018	1618.090332	19.937824
755.920105	1250.217529	3067.884766	1614.672363	20.050690
756.237305	1244.793457	3080.887939	1611.105957	19.950634
756.554443	1252.743896	3097.308838	1601.817993	18.924467
756.871582	1254.824341	3116.330811	1603.006836	18.704340
757.188599	1256.904907	3107.117188	1605.384644	18.834581
757.505615	1257.573608	3104.962158	1607.910767	18.963913
757.822510	1252.298096	3131.785400	1604.047241	18.715164
758.139465	1256.533203	3175.252686	1600.257690	17.914265
758.456238	1256.161743	3204.156250	1601.000610	17.702251
758.773010	1258.167969	3216.787842	1610.288574	17.977997
759.089783	1251.555054	3222.954346	1622.697144	18.826328
759.406433	1250.886353	3239.821289	1633.248047	19.224445
759.723145	1249.920288	3241.456299	1643.873413	19.781370
760.039673	1250.291870	3235.437500	1646.845337	19.976040
760.356201	1243.381714	3235.214844	1651.377930	20.483454
760.672668	1251.406372	3226.075439	1644.319214	19.897655
760.989136	1253.784058	3221.914795	1636.666138	19.454098
761.305481	1257.350708	3205.122314	1641.792969	19.737543
761.621826	1251.332153	3210.769287	1647.588501	20.222969
761.938049	1252.669556	3233.802979	1659.774292	20.549082
762.254333	1251.480713	3281.654053	1652.938354	19.774549
762.570496	1248.657227	3362.495361	1662.820679	19.592960
762.886597	1250.366211	3481.973877	1684.368530	19.447968
763.202637	1247.839844	3671.891846	1718.993286	19.436605
763.518677	1249.994629	3906.019531	1761.791626	19.269285
763.834656	1248.285645	4129.076660	1796.565430	19.032265
764.150574	1251.257813	4294.177246	1821.531250	18.740997
764.466370	1253.264038	4327.019043	1832.602173	18.847897
764.782288	1241.746948	4250.264160	1815.661133	19.076315
765.097961	1242.415649	4084.494873	1797.457031	19.529413
765.413696	1234.316772	3894.502686	1754.733032	19.563152
765.729309	1237.511841	3712.684326	1731.327759	19.950769
766.044861	1241.821411	3557.019775	1701.755249	19.865850
766.360474	1247.617065	3436.352295	1685.111328	19.988449
766.675903	1250.143311	3356.551514	1663.786499	19.637371
766.991394	1249.548828	3302.012939	1646.251099	19.328098
767.306763	1250.291870	3246.954346	1639.638184	19.499857
767.622131	1252.446533	3202.670166	1632.059204	19.465084
767.937378	1246.948120	3140.032959	1627.526855	20.103628
768.252625	1249.846069	3109.271484	1619.427734	19.876122
768.567810	1250.143188	3075.315186	1611.105835	19.776911
768.882996	1248.954346	3049.458008	1598.994629	19.441242
769.197998	1244.273315	3023.971924	1587.849121	19.305281
769.513062	1244.273315	2981.545166	1582.276367	19.455967
769.828064	1249.177246	2951.601318	1580.716187	19.474522
770.142944	1255.418823	2920.765625	1579.378540	19.452988
770.457825	1254.006958	2891.638916	1577.000977	19.723236
770.772705	1246.799683	2855.379150	1573.508789	20.310411
771.087402	1244.942017	2822.017578	1574.548950	20.899881
771.402100	1245.610840	2807.602783	1573.806030	21.011324
771.716736	1255.493042	2812.952393	1571.874023	20.313915
772.031372	1260.471313	2811.912109	1564.666626	19.607279
772.345947	1263.740723	2820.010986	1554.190063	18.663168
772.660461	1254.452759	2802.624268	1553.818481	19.336729
772.974854	1242.787231	2789.844482	1549.063110	19.797319
773.289246	1242.861694	2768.890869	1556.122070	20.527811
773.603638	1248.137085	2761.906250	1556.493530	20.370110
773.917908	1245.908081	2756.556641	1549.434692	20.092470
774.232178	1246.576782	2745.485596	1544.233398	19.858221
774.546265	1241.598511	2742.810547	1535.688599	19.590176
774.860474	1247.765625	2727.429932	1545.570801	20.126537
775.174561	1247.394165	2722.674561	1543.341797	20.060432
775.488586	1251.183594	2703.430176	1534.945679	19.539526
775.802551	1244.867798	2698.526123	1528.778442	19.530769
776.116516	1247.022583	2678.835938	1528.704102	19.673061
776.430359	1249.474609	2691.244385	1537.100220	19.949482
776.744202	1252.595337	2689.238525	1537.917603	19.860344
777.057922	1252.595337	2689.981445	1534.722778	19.627811
777.371704	1250.588989	2667.764893	1526.995239	19.504019
777.685303	1261.957275	2637.821045	1530.859009	19.544212
777.998962	1254.526978	2629.796387	1529.670044	20.006485
778.312500	1256.236206	2609.437256	1535.168579	20.612782
778.626038	1248.211426	2624.594971	1530.413452	20.503153
778.939453	1250.960571	2630.539307	1531.453491	20.331781
779.252869	1251.555054	2642.576172	1533.534058	20.271368
779.566223	1254.898560	2641.981689	1527.961304	19.686113
779.879578	1255.047241	2637.077881	1524.023071	19.462364
780.192749	1251.629395	2632.991211	1530.933228	20.219456
780.505920	1254.824341	2620.582764	1535.168335	20.526617
780.819031	1255.790405	2607.654053	1543.639038	21.292727
781.132141	1258.093628	2587.815186	1535.911499	20.892937
781.445190	1254.973022	2581.945068	1528.406860	20.605848
781.758118	1257.870728	2580.087646	1522.760132	20.033733
782.071045	1255.864624	2577.932861	1521.422485	20.086548
782.383911	1257.796509	2567.753174	1522.388306	20.198515
782.696838	1254.527222	2557.871338	1516.890015	20.129971
783.009583	1257.499268	2535.654541	1507.007813	19.520988
783.322266	1253.635376	2524.955078	1507.379272	19.959095
783.634888	1254.972900	2515.741455	1512.654907	20.438486
783.947510	1253.561157	2531.493896	1512.208984	20.239550
784.260132	1254.081421	2530.899414	1513.100586	20.286303
784.572571	1247.839844	2512.546387	1508.716675	20.627460
784.885010	1243.753296	2492.633301	1511.094360	21.406466
785.197449	1245.685181	2482.676758	1506.487671	21.083611
785.509766	1245.462280	2478.738525	1501.360718	20.749483
785.822083	1237.511841	2470.862549	1494.970703	20.874748
786.134277	1230.230103	2455.853516	1498.611694	21.897558
786.446533	1233.053589	2453.550049	1493.558960	21.344213
786.758606	1242.415771	2463.952637	1500.469116	21.125301
787.070740	1242.192871	2476.881104	1497.274048	20.659561
787.382690	1239.072266	2487.803711	1507.750977	21.516132
787.694641	1233.127930	2513.958252	1507.825195	21.446812
788.006653	1234.168213	2558.688477	1515.626953	21.249863
788.318481	1233.276611	2607.282227	1524.914673	21.225391
788.630310	1244.050415	2638.415039	1531.453247	20.611742
788.942017	1244.273438	2653.647217	1531.230469	20.360605
789.253784	1251.926514	2658.922852	1528.184082	19.634562
789.565430	1246.279419	2639.530029	1531.824829	20.494907
789.877014	1248.954346	2609.957275	1543.267578	21.624731
790.188538	1249.028687	2581.276611	1538.437866	21.723373
790.500061	1250.960571	2544.496582	1524.394531	21.138489
790.811462	1246.651001	2523.246094	1507.676392	20.446999
791.122925	1244.719238	2486.986328	1504.778687	20.934261
791.434204	1243.084473	2465.364502	1506.339233	21.538008
791.745483	1251.035034	2442.776367	1499.651855	20.861643
792.056702	1249.400269	2436.683594	1498.091431	20.946236
792.367920	1247.394165	2430.590576	1494.747925	20.905554
792.678955	1246.651123	2417.290527	1488.283569	20.641066
792.990112	1246.279541	2409.860107	1479.144165	20.012764
793.301086	1250.588989	2409.265869	1471.936890	19.103506
793.612122	1249.994629	2408.448486	1476.395020	19.543324
793.922974	1249.771851	2388.163818	1472.977051	19.607059
794.233826	1245.016479	2372.931885	1475.057617	20.395247
794.544556	1237.140381	2363.569580	1474.091675	21.035614
794.855286	1232.830811	2369.811279	1480.184570	21.755322
795.166016	1237.214722	2379.916260	1479.144165	21.171709
795.476624	1248.137085	2385.414551	1482.190796	20.580177
795.787292	1256.236206	2412.683838	1494.822144	20.630934
796.097778	1253.486938	2429.996094	1502.549805	21.169649
796.408264	1244.570679	2462.243408	1508.196655	21.649986
796.718689	1238.626343	2481.636719	1502.178101	21.202700
797.029053	1239.889526	2493.896484	1503.366821	21.010832
797.339355	1250.143188	2491.072998	1500.246216	20.154486
797.649658	1257.202026	2467.593506	1497.422729	19.846529
797.959839	1261.883301	2454.664795	1493.558960	19.423143
798.270020	1261.808838	2432.151123	1494.227661	19.859047
798.580078	1260.768555	2420.336914	1495.788086	20.267847
798.890137	1251.703735	2404.287354	1495.267944	21.132021
799.200195	1248.880249	2398.268799	1492.147339	21.164913
799.510071	1243.381714	2393.067871	1487.837524	21.262829
799.820007	1251.257813	2391.284668	1481.967773	20.237240
800.129883	1250.737671	2364.684326	1475.429077	20.170752
800.439575	1258.688110	2351.235107	1473.571655	19.668129
800.749329	1261.808716	2332.510986	1473.422852	19.764050
801.058960	1256.310425	2340.833008	1478.327026	20.471367
801.368591	1259.133911	2310.666016	1468.741821	19.933573
801.678162	1251.852173	2299.372070	1468.519043	20.683796
801.987671	1259.728394	2283.396729	1455.515991	19.126078
802.297119	1246.948242	2286.666260	1461.014526	20.588879
802.606506	1249.920410	2272.623291	1456.407715	20.190351
802.915894	1249.920410	2264.895752	1462.426147	20.937035
803.225159	1259.728394	2263.558105	1457.299316	19.681717
803.534424	1258.762329	2262.889404	1455.738892	19.616697
803.843628	1254.824341	2259.099854	1451.206543	19.554615
804.152771	1245.685181	2259.025635	1454.475952	20.604208
804.461792	1241.672729	2261.997803	1459.528320	21.351587
804.770874	1240.112427	2272.474365	1465.398315	21.822374
805.079773	1241.747070	2281.910889	1466.289673	21.587234
805.388733	1243.827515	2300.486328	1467.404297	21.158844
805.697571	1245.090698	2314.529785	1477.583862	21.739729
806.006470	1251.852173	2321.514160	1474.909058	20.853025
806.315125	1257.127686	2322.034180	1475.429199	20.499594
806.623901	1250.663330	2306.653564	1465.472656	20.341980
806.932495	1245.536499	2298.183350	1470.450806	21.366549
807.241150	1238.849243	2289.712646	1469.633423	21.961388
807.549622	1249.251587	2283.173828	1472.011230	21.545107
807.858154	1257.202148	2275.074951	1468.147461	20.724133
808.166565	1262.328979	2264.078125	1472.977051	21.028027
808.474915	1258.093628	2248.325928	1463.837891	20.777374
808.783264	1252.966797	2235.174561	1462.054688	21.287542
809.091492	1248.582886	2228.264404	1450.240601	20.584007
809.399719	1244.570557	2230.270508	1451.206543	20.963375
809.707825	1242.267212	2216.227295	1454.029907	21.742441
810.015930	1244.496216	2200.772217	1450.091919	21.499620
810.323975	1250.440308	2189.626953	1452.989624	21.566460
810.632080	1250.737671	2189.106689	1447.416992	20.959700
810.939880	1251.555054	2191.484619	1450.834961	21.201578
811.247864	1244.942017	2186.283203	1441.472778	20.877739
811.555664	1241.301147	2175.881104	1440.729858	21.338860
811.863464	1249.548706	2157.379395	1438.129272	20.772657
812.171143	1262.105957	2143.261963	1441.918579	20.406446
812.478882	1263.889160	2132.339600	1440.061035	20.285772
812.786438	1248.731567	2131.596436	1430.550293	20.594173
813.094055	1242.192871	2128.772705	1426.537964	20.792837
813.401489	1244.644897	2142.072998	1426.017944	20.210316
813.708984	1251.257935	2136.128906	1433.893921	20.639843
814.016357	1253.338257	2141.478760	1431.664917	20.078653
814.323730	1256.756226	2120.450928	1429.212891	19.967318
814.630981	1257.573364	2116.661377	1425.348999	19.529505
814.938232	1253.412476	2104.475830	1427.801147	20.490681
815.245361	1252.892456	2106.110596	1432.184937	21.013674
815.552490	1251.629395	2103.584229	1433.745239	21.376232
815.859619	1258.390991	2110.940430	1435.156860	20.733797
816.166565	1252.000854	2116.958984	1426.686523	20.195852
816.473572	1248.359985	2116.438721	1431.813477	21.133278
816.780457	1239.443726	2115.175537	1425.497681	21.245541
817.087341	1242.787231	2123.868896	1422.674194	20.416605
817.394043	1247.839844	2137.912354	1413.980835	18.666006
817.700806	1245.982300	2147.348633	1422.302734	19.561462
818.007507	1244.942139	2151.509521	1433.076538	20.752390
818.314209	1238.626465	2153.812988	1437.906250	21.774773
818.620667	1243.084595	2175.360840	1445.633789	21.726307
818.927246	1241.970093	2194.976807	1454.773071	22.329641
819.233704	1255.270142	2232.945313	1469.336304	21.895428
819.540161	1251.406494	2278.864258	1471.268188	21.398611
819.846497	1250.217651	2349.006104	1490.140991	21.835262
820.152832	1240.781250	2439.061279	1511.243164	22.570845
820.458984	1243.753296	2510.837402	1530.041626	22.594265
820.765259	1247.096802	2609.734375	1538.660767	21.397030
821.071350	1241.969971	2707.293701	1552.778320	21.210899
821.377502	1243.530396	2891.044189	1583.390991	20.628695
821.683472	1240.781128	3240.416016	1663.192261	21.124413
821.989441	1241.524292	3940.496094	1814.472534	21.228390
822.295349	1242.044312	5053.253906	2046.296875	21.102293
822.601196	1243.456055	6430.974609	2316.312988	20.681505
822.907043	1240.706909	7688.103027	2576.744141	20.722122
823.212769	1242.935913	8437.000000	2745.708252	20.889059
823.518494	1239.517944	8427.934570	2760.123047	21.153547
823.824097	1248.137085	7747.173340	2625.932373	21.199995
824.129700	1244.719116	6702.699219	2417.439209	21.486340
824.435242	1250.440430	5648.864746	2203.893311	21.677147
824.740723	1241.895630	4797.206543	2030.842163	22.190647
825.046082	1246.056641	4177.968262	1892.267456	22.040596
825.351501	1241.449829	3727.024658	1799.240234	22.441105
825.656799	1248.954468	3429.293701	1729.247070	22.028341
825.962036	1243.827515	3235.883545	1691.427124	22.469229
826.267212	1242.861694	3167.079102	1677.532593	22.589491
826.572449	1241.078247	3192.490967	1680.504517	22.518366
826.877502	1235.728638	3324.749268	1709.111206	22.660503
827.182495	1239.220825	3580.796631	1761.494629	22.304375
827.487488	1241.895630	3909.065674	1832.527954	22.144533
827.792419	1245.536621	4183.094238	1904.675903	22.438343
828.097290	1246.056641	4293.211426	1929.344360	22.423794
828.402100	1239.072144	4178.190918	1904.675781	22.646368
828.706848	1240.855347	3902.676514	1828.589844	22.080164
829.011597	1238.551880	3526.406982	1749.234741	22.321470
829.316223	1244.347534	3162.621094	1671.068237	22.245039
829.620789	1243.901855	2848.692139	1609.099731	22.756735
829.925354	1244.421997	2626.749756	1560.208496	22.844545
830.229797	1242.415771	2472.645752	1524.988892	22.969130
830.534302	1246.353882	2373.749023	1498.314331	22.348904
830.838562	1246.873901	2293.650635	1470.525024	21.365694
831.142944	1249.177368	2240.152588	1455.813110	20.851757
831.447144	1240.855347	2193.193359	1441.472656	21.065767
831.751404	1245.462280	2168.153320	1436.717407	20.727970
832.055542	1247.839966	2150.766602	1434.042603	20.622122
832.359619	1255.864624	2159.682861	1440.581055	20.437344
832.663635	1254.007080	2187.471924	1450.389038	21.037960
832.967651	1253.784058	2242.827637	1467.181641	21.576157
833.271545	1253.858398	2352.127197	1487.391968	21.263790
833.575439	1255.864624	2518.193604	1518.822144	20.831141
833.879211	1254.601440	2748.903320	1566.598633	20.879128
834.183044	1251.034912	2996.777344	1623.217285	21.319431
834.486694	1245.610718	3184.911865	1670.919556	21.931036
834.790344	1244.273438	3243.685303	1684.739868	22.029800
835.093933	1238.329224	3176.515625	1667.353149	22.135328
835.397522	1243.233276	3022.411865	1630.647583	21.774897
835.700928	1247.765747	2817.485107	1587.254761	21.627371
836.004395	1257.945068	2625.338135	1549.583130	21.328033
836.307739	1246.576782	2455.704834	1509.088257	21.710808
836.611023	1237.214600	2336.151611	1480.481567	22.136570
836.914307	1228.595459	2231.905273	1457.967896	22.861576
837.217529	1238.180542	2157.379639	1441.472656	22.116222
837.520691	1236.991699	2094.816650	1430.401733	22.546562
837.823730	1242.415771	2045.256836	1417.473022	21.804720
838.126831	1244.719116	1995.250977	1412.791992	22.393837
838.429749	1249.994629	1961.369019	1406.327515	21.976175
838.732727	1248.285645	1931.276367	1400.457642	22.280243
839.035522	1238.997925	1910.991821	1399.194458	23.838985
839.338379	1236.620239	1898.137329	1387.603394	22.823772
839.641113	1237.437500	1902.521118	1383.590942	21.975199
839.943848	1246.056763	1936.031738	1380.990356	19.556303
840.246460	1247.171265	1998.668945	1396.965454	19.932755
840.549072	1249.697388	2055.138916	1416.581421	20.719572
840.851563	1245.685059	2090.655518	1435.082642	22.414700
841.154053	1246.651001	2079.733154	1440.729858	23.296484
841.456482	1250.440552	2048.303223	1436.123047	23.272488
841.758850	1251.703735	1995.027954	1415.615356	22.051161
842.061157	1248.137085	1943.536499	1404.395874	22.470366
842.363403	1243.307495	1894.496460	1383.293823	21.497036
842.665588	1247.542603	1848.874634	1377.869629	21.673056
842.967712	1251.109253	1813.283569	1365.163940	20.288136
843.269775	1252.075195	1776.875366	1360.482788	20.656927
843.571777	1249.251587	1755.921875	1354.761597	20.824196
843.873840	1248.657227	1733.705444	1347.628540	20.404428
844.175659	1241.747070	1720.925293	1347.777100	22.127472
844.477600	1247.319702	1714.906860	1350.229126	22.008608
844.779297	1247.096802	1709.482788	1351.789429	22.641825
845.081116	1249.474487	1705.173218	1348.371582	21.702297
845.382751	1243.010254	1698.188599	1336.111572	20.453812
845.684387	1249.771729	1686.300171	1330.836060	18.570229
845.985962	1248.434326	1678.795532	1327.195190	18.301107
846.287537	1245.610840	1660.665894	1331.579102	20.712496
846.588989	1241.895752	1658.511108	1330.613037	21.294771
846.890381	1244.867798	1651.452271	1328.681152	20.614008
847.191711	1252.669556	1650.263306	1324.297363	18.015326
847.493042	1250.143433	1642.089966	1317.461548	17.175331
847.794250	1247.914185	1643.353149	1320.507935	18.357763
848.095459	1245.833618	1641.867188	1327.195190	20.544109
848.396606	1248.062866	1640.678345	1331.058960	21.139282
848.697693	1250.068970	1636.740234	1321.919800	18.581890
848.998657	1247.245483	1634.808594	1310.254272	16.257685
849.299622	1248.211426	1632.876587	1312.483276	16.708519
849.600464	1245.016479	1632.356445	1317.758667	18.779934
849.901367	1250.291992	1631.910645	1320.210815	18.321648
850.202087	1253.486938	1629.012817	1319.690552	17.629574
850.502808	1260.396973	1625.966431	1313.374878	14.491885
850.803467	1254.750000	1619.725098	1307.059082	14.332233
851.104065	1246.205200	1617.941772	1304.829956	15.770511
851.404663	1240.409546	1610.660156	1312.854858	19.566561
851.705139	1244.496216	1608.505249	1323.851685	21.800411
852.005615	1251.257813	1601.743652	1324.594604	20.924324
852.306030	1257.053345	1597.359863	1319.096191	18.231461
852.606384	1253.635498	1593.867676	1314.712158	17.951466
852.906616	1257.202026	1591.787109	1316.569702	17.743671
853.206909	1256.830444	1593.644897	1320.062134	18.773449
853.506958	1259.059692	1593.273315	1330.613159	21.409500
853.807129	1251.926636	1591.638672	1330.538940	23.140865
854.107178	1249.103149	1592.084473	1325.189087	22.183697
854.407166	1245.610840	1591.267090	1312.557617	19.368021
854.707092	1255.121582	1589.632446	1305.276001	14.993361
855.007019	1259.505493	1579.081543	1308.693848	15.391752
855.306763	1261.808960	1575.292114	1311.591553	15.880468
855.606567	1250.886230	1581.384888	1314.340698	19.199614
855.906250	1250.514771	1579.675903	1315.752563	19.819410
856.205933	1243.233154	1584.802734	1312.631836	20.317583
856.505493	1241.895630	1578.041382	1316.644165	22.236942
856.805054	1241.152710	1584.877075	1317.164307	22.114113
857.104492	1247.542725	1584.802856	1311.963135	19.101105
857.403931	1249.400269	1579.527344	1311.220093	18.726068
857.703308	1246.502441	1576.629517	1311.814575	19.783937
858.002563	1250.960571	1566.598633	1319.096313	21.586668
858.301819	1250.291870	1568.307617	1320.359375	22.032715
858.601013	1247.394165	1561.694702	1311.517334	20.401865
858.900208	1248.360107	1562.957642	1306.984863	18.634842
859.199219	1251.777954	1559.391235	1297.325562	14.806775
859.498291	1254.601440	1556.419067	1301.783691	15.632702
859.797302	1249.177368	1555.378906	1299.183105	16.330988
860.096191	1246.948364	1557.533569	1299.703247	16.985640
860.395020	1246.130981	1559.094116	1302.972534	18.162380
860.693787	1248.954468	1553.595581	1295.616577	15.317076
860.992554	1251.777954	1544.382202	1293.833252	14.372757
861.291260	1247.988403	1543.341797	1292.644409	15.119516
861.589844	1242.638672	1542.227173	1297.399902	18.278816
861.888428	1241.301270	1543.341797	1304.235718	20.836426
862.186890	1249.474487	1536.580444	1301.486450	18.115948
862.485413	1256.013062	1532.865234	1302.898315	16.935122
862.783813	1253.858276	1534.796997	1300.000366	16.424253
863.082153	1246.799683	1538.586426	1299.554565	18.079945
863.380371	1242.861450	1542.895874	1300.446289	19.192743
863.678589	1244.421997	1542.821655	1301.412109	19.098585
863.976746	1244.199097	1543.490356	1300.297485	18.743744
864.274902	1247.245483	1541.632813	1300.669067	18.147379
864.572937	1244.793579	1538.660767	1297.771362	18.027798
864.870911	1247.022583	1538.809448	1301.635132	18.716589
865.168884	1239.592285	1549.657593	1309.065430	22.405972
865.466736	1244.867798	1554.190063	1302.601074	18.664442
865.764587	1244.570679	1548.468750	1302.526733	19.070887
866.062317	1250.217651	1535.688599	1293.238892	15.070270
866.360107	1245.685059	1525.286255	1293.907593	17.246899
866.657715	1243.307251	1525.657837	1286.105591	15.157872
866.955322	1249.623169	1522.388550	1292.049927	15.554304
867.252808	1246.576782	1528.109863	1303.418335	20.190008
867.550293	1246.725464	1520.233765	1311.740356	23.770720
867.847717	1235.134155	1521.719727	1314.415161	27.663990
868.145081	1235.654297	1519.862183	1308.396606	25.594753
868.442383	1239.518066	1526.400757	1305.944702	23.154634
868.739624	1245.388062	1524.617554	1303.938354	20.968521
869.036804	1254.973145	1520.456543	1310.254272	20.822819
869.333984	1254.452881	1519.193359	1305.870361	19.421843
869.631042	1248.731567	1521.125366	1300.149048	18.876156
869.928101	1241.672852	1526.252319	1296.656738	19.321100
870.224976	1238.774902	1527.738281	1288.780640	17.305216
870.521851	1245.090698	1527.663940	1300.966431	19.773893
870.818726	1247.914185	1533.831055	1296.805542	17.099850
871.115479	1252.595337	1548.097290	1305.350220	17.852634
871.412231	1254.898560	1552.629517	1294.650513	13.351636
871.708862	1258.985229	1552.109375	1298.440063	13.460111
872.005493	1269.907715	1540.964233	1301.560669	11.677622
872.302063	1263.666382	1536.951782	1302.303711	14.138087
872.598572	1262.551758	1531.601929	1303.269653	15.133942
872.895020	1247.542725	1528.555664	1305.573120	20.650434
873.191406	1239.963867	1531.824829	1310.625610	24.210754
873.487671	1236.100098	1532.567993	1315.901123	26.917257
873.783997	1240.038086	1543.564819	1315.306763	24.798038
874.080200	1248.062866	1540.443970	1310.700073	21.423138
874.376343	1248.880005	1541.038452	1300.594849	17.700958
874.672424	1243.678833	1536.060059	1296.062378	17.916180
874.968445	1241.449829	1537.917603	1292.570190	17.243143
875.264465	1235.505615	1540.815430	1297.697021	20.369934
875.560364	1238.700684	1540.369629	1299.703247	20.221691
875.856201	1237.957642	1536.283081	1303.046753	21.818157
876.152039	1235.951538	1530.338867	1304.161377	23.170099
876.447754	1235.802856	1529.001465	1304.978638	23.593489
876.743469	1236.322876	1524.469116	1302.898315	23.104740
877.039063	1238.254883	1517.856079	1292.272949	19.319683
877.334595	1237.363159	1513.100586	1291.604126	19.671238
877.630127	1236.620117	1525.657715	1297.994141	21.233923
877.925537	1238.849243	1538.586304	1310.031250	23.748150
878.221008	1240.260986	1546.982544	1311.888794	23.352715
878.516296	1243.678955	1555.973267	1313.969360	22.507744
878.811646	1248.508667	1564.592407	1312.929077	20.380804
879.106812	1247.096802	1580.270386	1316.198364	20.740408
879.401978	1250.068970	1590.152710	1312.334595	18.308910
879.697083	1248.880249	1617.124390	1320.507935	19.451141
879.992126	1250.514771	1639.192261	1321.696899	18.313931
880.287109	1252.372437	1681.990601	1339.901001	20.373571
880.582031	1255.790283	1746.708374	1354.910278	20.190741
880.876892	1252.075195	1895.016602	1391.467163	21.680353
881.171753	1254.898682	2154.555908	1444.147827	21.035694
881.466492	1248.434326	2578.675781	1535.688477	21.594135
881.761230	1249.623169	3112.615234	1656.430542	21.836237
882.055786	1236.620239	3639.198486	1769.296387	22.171022
882.350403	1242.861694	3955.802734	1842.856079	22.116014
882.644958	1245.610840	3971.332031	1846.794067	22.055933
882.939453	1252.075195	3723.011963	1797.531372	22.074875
883.233826	1250.068970	3341.764893	1720.331055	22.482336
883.528137	1249.623169	2944.542236	1639.563843	23.006449
883.822449	1254.229980	2614.341309	1570.610962	23.261404
884.116577	1247.765625	2350.492432	1496.159546	22.525427
884.410828	1249.548828	2166.741699	1446.599731	21.484129
884.704956	1247.765625	2021.405396	1406.253418	20.485994
884.999023	1248.880249	1908.019531	1386.414551	20.865742
885.292969	1242.564453	1829.109985	1361.225952	20.230570
885.586914	1241.226929	1766.324219	1346.885376	20.121689
885.880798	1252.000854	1737.271851	1339.975220	18.128914
886.174622	1257.796509	1719.216187	1349.114624	19.790686
886.468384	1255.344482	1699.005981	1348.817261	21.068489
886.762085	1246.502563	1685.557251	1346.365356	22.744955
887.055664	1242.713013	1658.585327	1338.043335	22.922979
887.349304	1241.375488	1646.548218	1334.774048	23.051542
887.642822	1241.672729	1619.724976	1327.492432	22.700487
887.936340	1242.490112	1605.384644	1317.833008	20.761650
888.229736	1247.468384	1584.431274	1308.693848	18.169794
888.523071	1246.651001	1565.632690	1298.365845	16.212481
888.816284	1252.149414	1544.976563	1294.576416	14.488753
889.109619	1250.366089	1529.967163	1290.563965	14.376867
889.402710	1252.297974	1525.880493	1302.898315	18.495459
889.695862	1249.103027	1514.958008	1301.114868	19.563990
889.988892	1247.022583	1507.825195	1302.600952	21.310511
890.281921	1246.502563	1503.738525	1293.759033	18.370865
>>>>>End Processed Spectral Data<<<<<
