Jaz Data File
++++++++++++++++++++++++++++++++++++
Date: Fri Jun 04 14:03:51 2021
User: jaz
Dark Spectrum Present: Yes
Reference Spectrum Present: Yes
Processed Spectrum Present: Yes
Spectrometers: JAZA3586
Integration Time (usec): 519000 (JAZA3586)
Spectra Averaged: 10 (JAZA3586)
Boxcar Smoothing: 1 (JAZA3586)
Correct for Electrical Dark: No (JAZA3586)
Strobe/Lamp Enabled: Yes (JAZA3586)
Correct for Detector Non-linearity: No (JAZA3586)
Correct for Stray Light: No (JAZA3586)
Number of Pixels in Processed Spectrum: 2048
>>>>>Begin Processed Spectral Data<<<<<
W	D	R	S	P
191.335022	0.000000	0.000000	0.000000	0.000000
191.713211	267.935577	267.712708	272.096588	-1867.013550
192.091385	537.060059	543.450073	542.781433	89.536171
192.469528	806.704590	817.404236	816.958496	95.834068
192.847641	811.831543	822.010986	824.611633	125.548027
193.225739	843.335876	843.707458	851.434875	2179.599121
193.603790	875.583252	872.536865	872.611145	97.561707
193.981842	902.852356	903.000977	883.236511	-13198.603516
194.359863	902.703796	908.202148	888.363342	-260.813690
194.737854	915.038025	914.592224	901.366272	3066.785400
195.115829	908.276428	906.047363	907.830627	19.999453
195.493774	909.762512	901.737793	903.298157	80.555534
195.871704	903.000977	893.490234	899.360168	38.281010
196.249603	921.353699	915.558105	918.381653	51.281132
196.627457	928.115234	915.409485	913.031799	118.713463
197.005310	926.629211	920.090576	905.527283	322.726807
197.383133	919.570496	905.675842	896.833801	163.636276
197.760910	930.121399	927.075012	922.914063	236.586395
198.138687	927.669434	931.310242	927.892334	6.122278
198.516449	922.096863	932.944885	920.536377	-14.384980
198.894180	908.870911	909.985413	894.530457	-1286.714111
199.271866	910.356934	900.325989	900.474670	98.517769
199.649536	907.161926	890.666687	891.112610	97.296654
200.027191	909.019531	902.778015	899.731689	148.807465
200.404816	893.936035	900.623230	888.586243	-80.000549
200.782410	896.982422	916.672668	907.459167	53.207794
201.159988	890.072266	922.245361	917.415710	84.988541
201.537537	897.279602	942.455750	924.548767	60.361866
201.915070	892.524231	945.576416	915.929688	44.117798
202.292557	880.933044	940.746765	907.681946	44.720345
202.670029	883.607910	936.139954	916.672668	62.942074
203.047485	881.824707	928.189636	913.849121	69.070343
203.424911	885.465515	931.756104	915.186707	64.205688
203.802292	889.775085	937.031677	905.304382	32.861652
204.179688	888.140442	941.935608	908.648010	38.121582
204.557037	902.926697	940.078064	908.573730	15.200069
204.934357	898.617126	937.774658	909.316711	27.324463
205.311661	902.183594	935.842773	910.505554	24.724194
205.688934	904.115479	943.050110	907.161926	7.824519
206.066177	896.759521	925.366150	900.697510	13.766000
206.443390	892.078430	922.691223	901.663513	31.310711
206.820587	870.233459	912.957520	900.251770	70.260902
207.197769	882.790710	927.520813	920.982178	85.382027
207.574921	892.078430	931.384705	914.294922	56.521488
207.952042	900.400391	933.390808	910.728455	31.306253
208.329147	897.428223	944.907715	902.703796	11.111268
208.706223	1063.123413	1120.187866	1084.745483	37.890610
209.083267	1066.838501	1134.528198	1100.794800	50.164650
209.460297	1066.615601	1132.224854	1098.565796	48.697697
209.837280	889.700867	952.858093	922.542542	51.999870
210.214264	879.521301	940.969727	909.539612	48.851227
210.591217	868.598816	922.096741	892.747253	45.139019
210.968124	882.790710	940.523743	905.601563	39.510921
211.345016	894.753418	945.427734	914.740723	39.442673
211.721893	891.335449	951.594910	919.421875	46.609158
212.098724	887.991760	941.638367	909.390930	39.889141
212.475555	889.552185	947.879822	911.397156	37.452179
212.852356	897.799805	956.944763	917.044128	32.537556
213.229126	893.044434	957.390625	916.895569	37.066895
213.605865	879.149841	938.591980	900.920471	36.624908
213.982590	872.313965	927.520813	901.292053	52.490025
214.359283	868.970398	915.038025	891.409851	48.709808
214.735931	874.468750	921.130859	895.199219	44.426773
215.112579	886.431458	934.876770	902.332275	32.822201
215.489197	890.220886	951.223450	911.842957	35.444527
215.865799	887.471680	948.994385	918.233093	50.000099
216.242355	875.583252	942.752930	909.836731	50.995449
216.618896	880.933105	947.805603	920.313477	58.888741
216.995407	882.790588	955.458679	915.186707	44.580940
217.371902	880.561523	951.743469	908.276550	38.935471
217.748367	876.549133	942.901550	903.966858	41.321365
218.124802	879.744202	943.124451	911.248535	49.706863
218.501236	882.344727	942.678711	913.106140	50.985218
218.877609	876.400574	938.889343	905.898743	47.205551
219.253983	870.827881	939.112122	899.508789	42.002235
219.630295	878.703918	945.353516	906.938965	42.363415
220.006592	884.871094	950.703308	905.378601	31.151173
220.382889	887.917480	949.885986	907.607727	31.774603
220.759140	884.053711	948.845703	910.505554	40.825790
221.135391	889.032043	952.709473	908.499329	30.571720
221.511581	879.224121	948.325500	908.276428	42.043022
221.887772	879.818542	952.560852	907.310547	37.793694
222.263931	885.242615	970.987976	919.793396	40.294636
222.640060	899.211487	989.043457	926.703552	30.603876
223.016159	896.982422	999.445862	926.777832	29.079065
223.392212	888.214661	991.718445	920.759277	31.442924
223.768265	878.778259	994.096008	913.626282	30.219131
224.144302	876.400635	991.346924	914.220703	32.902382
224.520294	868.524597	983.842468	910.951355	36.791138
224.896286	879.224121	996.250977	926.183411	40.126934
225.272217	891.261047	1019.581970	933.836609	33.178970
225.648148	909.390930	1053.984009	942.307068	22.764669
226.024048	899.211487	1054.801392	923.136902	15.377229
226.399902	890.815247	1059.185303	908.722229	10.635491
226.775772	870.233459	1063.569214	901.514893	16.179850
227.151581	876.252014	1096.856812	915.409485	17.750053
227.527374	873.651428	1114.615112	925.514648	21.523252
227.903137	880.933105	1156.670532	938.220459	20.776052
228.278870	884.425293	1201.697998	954.046936	21.943787
228.654572	880.041504	1274.217407	962.814697	20.999050
229.030273	879.669922	1355.281616	972.696960	19.559452
229.405930	871.570984	1439.317993	970.913635	17.497698
229.781555	878.926941	1512.432007	982.430603	16.338253
230.157181	874.988831	1530.041626	969.204651	14.382936
230.532761	879.149719	1493.187500	964.375000	13.879485
230.908325	869.787598	1432.556641	948.548523	13.995249
231.283859	882.419128	1387.306274	966.975586	16.747595
231.659332	884.499573	1359.739868	959.471008	15.775479
232.034821	890.369568	1335.368530	960.957092	15.862402
232.410263	877.143616	1308.842407	942.009949	15.025831
232.785690	877.292236	1291.604248	946.170898	16.624828
233.161087	877.217957	1273.697266	946.096497	17.372543
233.536469	880.710205	1254.898682	941.043945	16.123890
233.911804	883.979492	1256.384644	939.334961	14.864313
234.287140	880.041504	1268.941895	935.471252	14.252942
234.662430	888.289063	1307.356323	957.762024	16.577997
235.037704	875.583313	1319.541992	959.619629	18.928860
235.412933	877.292236	1317.238647	967.272888	20.452639
235.788162	860.871399	1310.551392	957.910706	21.579636
236.163345	874.320129	1310.922974	965.638184	20.915588
236.538513	884.276672	1333.436646	977.377930	20.727861
236.913635	889.403564	1336.334473	979.235535	20.099745
237.288742	890.072266	1351.269409	992.089844	22.120167
237.663834	883.830872	1348.371582	985.848450	21.960955
238.038879	882.196228	1352.235229	992.981445	23.569366
238.413910	875.063171	1342.724487	982.802063	23.037804
238.788910	877.812317	1359.814087	987.111633	22.676123
239.163879	878.852600	1371.033813	993.427429	23.278994
239.538834	871.199402	1391.467163	993.055847	23.421871
239.913757	874.691589	1422.005493	1010.294128	24.776009
240.288651	875.583191	1468.816284	1012.151672	23.021049
240.663528	877.217957	1537.992188	1023.891541	22.197231
241.038361	864.883606	1596.245483	1025.229004	21.924221
241.413177	867.187012	1695.959595	1055.990234	22.781065
241.787979	864.586487	1799.686157	1083.853882	23.448559
242.162735	874.691589	1933.282593	1107.184814	21.962515
242.537476	870.010559	2040.575684	1110.082642	20.509073
242.912170	896.982422	2177.292725	1146.565308	19.493937
243.286865	902.703796	2232.945557	1149.240234	18.533207
243.661514	907.161926	2242.307373	1156.521851	18.676611
244.036148	900.920471	2153.664307	1123.680054	17.781734
244.410751	891.335449	2062.271973	1123.754395	19.848980
244.785339	886.802979	1965.901367	1106.144531	20.326372
245.159882	879.669922	1930.087524	1121.971069	23.067125
245.534378	892.449951	1957.653687	1145.302124	23.737448
245.908890	890.146545	2059.968750	1179.852905	24.764990
246.283356	883.310730	2216.747314	1206.379028	24.228247
246.657791	867.558594	2437.946533	1242.713013	23.889282
247.032196	875.508972	2692.582275	1305.127319	23.643425
247.406586	872.165344	2925.892578	1326.749390	22.134586
247.780960	873.279846	3091.513428	1335.591431	20.841429
248.155289	868.598877	3118.410889	1302.303711	19.277382
248.529602	866.444031	3021.817383	1286.180054	19.473936
248.903870	869.936218	2823.354492	1249.697388	19.440853
249.278122	867.261414	2606.167969	1209.202515	19.664145
249.652344	862.877502	2415.655762	1168.261719	19.666956
250.026550	862.877441	2276.263916	1148.348511	20.197666
250.400711	888.363281	2187.249268	1157.116333	20.691042
250.774857	894.456116	2120.154053	1165.958374	22.150827
251.148987	892.152771	2085.157471	1170.490723	23.330835
251.523071	865.923889	2081.813721	1179.035522	25.751644
251.897125	881.601746	2129.887451	1209.499634	26.267857
252.271164	876.920715	2195.273926	1211.505859	25.379021
252.645187	876.177673	2252.263916	1210.540039	24.298069
253.019165	858.419250	2267.793213	1185.425659	23.202244
253.393112	883.162109	2262.220703	1202.218018	23.135777
253.767044	885.539856	2178.407227	1170.639404	22.051723
254.140930	894.010315	2094.073975	1169.747803	22.976904
254.514801	878.926941	1991.015747	1150.354858	24.407034
254.888657	883.905212	1956.464844	1166.998535	26.394182
255.262466	876.326355	1927.041016	1152.806641	26.313547
255.636276	894.753357	1942.941772	1175.766235	26.809385
256.010010	910.282532	1968.873413	1193.821777	26.784594
256.383759	922.765442	2022.148438	1224.731689	27.466883
256.757446	900.474670	2070.965576	1220.124878	27.309071
257.131134	889.626465	2131.893555	1229.041382	27.322218
257.504791	877.515137	2215.632568	1251.629272	27.958244
257.878418	872.982727	2333.551270	1286.551636	28.315611
258.252014	875.508972	2494.342529	1347.479858	29.154999
258.625580	886.951660	2686.563477	1414.723755	29.326996
258.999115	879.967102	2915.416016	1492.741699	30.105131
259.372650	870.456360	3182.980225	1558.350952	29.746485
259.746124	864.809387	3481.454102	1609.248413	28.450136
260.119598	864.140625	3785.575439	1646.399536	26.776531
260.493042	865.775208	3991.319336	1647.588501	25.013670
260.866425	862.357239	4040.284912	1629.458618	24.138414
261.239838	869.341797	3866.639404	1583.836792	23.837973
261.613159	861.985840	3582.802734	1521.496704	24.239443
261.986511	864.289307	3283.214111	1460.568481	24.650587
262.359802	864.809387	3051.538330	1408.556641	24.865782
262.733063	865.924011	2896.989014	1388.717773	25.739883
263.106293	870.084961	2793.559326	1383.070923	26.669758
263.479523	884.573914	2749.126221	1396.816895	27.472708
263.852692	888.066162	2718.142090	1404.098511	28.197319
264.225861	871.125183	2683.591553	1395.330688	28.922220
264.598969	874.320129	2652.458740	1398.377319	29.472235
264.972076	871.645203	2641.833252	1402.463867	29.986570
265.345154	881.750305	2670.811279	1437.757690	31.078167
265.718201	867.112793	2715.021484	1446.005249	31.326897
266.091217	901.143372	2824.469482	1499.354614	31.102953
266.464203	903.372559	2931.019531	1519.119141	30.367544
266.837158	902.332214	3041.804688	1551.737915	30.353544
267.210114	871.199402	3120.639893	1540.815430	29.768116
267.583038	873.502747	3181.122314	1553.521362	29.468401
267.955902	870.604980	3213.147217	1556.716309	29.289177
268.328766	881.155945	3208.168701	1559.836914	29.165331
268.701569	877.292236	3200.143799	1552.332397	29.060839
269.074371	878.406738	3198.955078	1557.607910	29.268995
269.447144	868.598816	3230.385010	1589.335327	30.516586
269.819885	863.769226	3292.725342	1629.681641	31.532576
270.192596	864.958008	3395.708740	1688.157837	32.527889
270.565277	890.146667	3550.852783	1765.804199	32.910721
270.937927	892.747131	3735.123047	1829.630249	32.961266
271.310577	893.118652	3948.966553	1876.663696	32.185669
271.683136	870.307800	4153.447754	1892.490356	31.134298
272.055725	869.862000	4307.625977	1898.657349	29.926296
272.428284	869.638977	4343.291504	1880.156128	29.090910
272.800812	863.694824	4277.235840	1855.710449	29.061190
273.173279	868.301575	4140.890625	1831.562134	29.434204
273.545776	871.570862	4038.352783	1820.862671	29.976545
273.918152	886.654358	3939.901611	1803.549927	30.030176
274.290558	882.493408	3875.852783	1788.466431	30.266096
274.662964	883.756531	3799.544189	1785.791626	30.936241
275.035278	875.211731	3758.529053	1776.726685	31.266588
275.407593	880.190125	3768.559814	1796.342651	31.718674
275.779907	884.276672	3840.707764	1833.716797	32.114399
276.152161	878.852600	3895.394531	1865.666992	32.713432
276.524384	879.372620	3979.207764	1889.443848	32.584675
276.896606	874.914551	4027.950439	1884.391235	32.016022
277.268799	879.818542	4085.237549	1893.530640	31.624949
277.640930	872.611145	4090.439209	1893.604858	31.729280
278.013031	873.428467	4085.832764	1906.087769	32.145996
278.385162	866.889832	4072.904053	1913.592407	32.648098
278.757233	871.868164	4064.358643	1920.502563	32.846909
279.129272	867.855774	4085.906494	1928.973022	32.973911
279.501282	871.050842	4108.940430	1947.474243	33.244595
279.873230	869.490479	4170.463379	1983.436890	33.746002
280.245178	864.958008	4265.570801	2030.841919	34.284523
280.617126	872.016785	4425.172852	2095.188232	34.424927
280.988983	868.004395	4597.332520	2154.630371	34.500210
281.360870	893.193054	4778.631348	2233.168213	34.487103
281.732697	883.830872	4945.663574	2259.991455	33.880287
282.104492	887.100281	5074.355957	2288.152100	33.459904
282.476288	873.502747	5156.831543	2266.456055	32.520348
282.848053	878.555420	5181.648926	2286.963379	32.730125
283.219757	884.351013	5183.135254	2277.378174	32.405140
283.591461	881.601807	5136.992676	2274.703369	32.737335
283.963135	883.087891	5087.804688	2276.114990	33.130104
284.334747	880.710144	5098.132324	2316.238525	34.038052
284.706360	889.552063	5171.543457	2364.238525	34.439270
285.077942	902.034973	5327.802246	2422.194580	34.347935
285.449524	901.366272	5445.943848	2456.968262	34.229847
285.821014	886.654358	5542.166016	2462.243652	33.843525
286.192535	869.564758	5653.693848	2467.147461	33.393387
286.563995	868.598816	5747.167480	2460.608643	32.632721
286.935425	878.704041	5800.293457	2455.184814	32.031944
287.306824	877.440918	5718.857422	2410.900391	31.673777
287.678223	869.193298	5577.756348	2367.136230	31.813164
288.049561	881.601807	5462.587402	2359.334717	32.257969
288.420898	884.722473	5336.421387	2351.606689	32.951115
288.792145	893.861633	5298.526855	2374.269287	33.609997
289.163452	875.731934	5309.598145	2411.420410	34.635426
289.534668	876.846436	5454.265625	2480.447998	35.032879
289.905914	871.570862	5621.372559	2539.815674	35.122410
290.277039	885.837097	5826.002441	2596.805908	34.633835
290.648193	902.926697	6017.480469	2638.043945	33.925095
291.019318	907.459167	6136.587891	2641.833252	33.167553
291.390381	881.676086	6108.353027	2591.678955	32.716831
291.761475	862.580261	6010.421387	2526.515625	32.322971
292.132507	862.283142	5892.057129	2498.503174	32.530685
292.503510	872.016785	5806.534668	2500.732422	33.006577
292.874481	909.465332	5798.955566	2572.508789	34.012615
293.245422	912.734680	5834.175293	2627.864258	34.850155
293.616364	917.787292	5989.542480	2688.049561	34.904331
293.987213	881.676086	6126.482422	2727.652832	35.196281
294.358093	875.806152	6340.845703	2790.884521	35.042351
294.728943	862.357361	6537.450684	2853.595947	35.087326
295.099731	860.202576	6759.987793	2901.075439	34.592323
295.470490	860.128235	6917.806152	2945.582764	34.426636
295.841248	871.422180	7023.242188	2996.479736	34.543560
296.211975	869.787598	7114.931152	3057.185547	35.025581
296.582642	870.530579	7278.471191	3115.884766	35.040188
296.953308	864.363525	7447.732910	3145.010986	34.642559
297.323883	864.214905	7554.729004	3130.001953	33.865665
297.694519	867.632813	7561.192871	3071.600342	32.926685
298.065063	874.245789	7480.798340	3010.746338	32.339111
298.435608	874.394348	7270.520996	2932.431396	32.176304
298.806122	871.347900	6948.642090	2837.026611	32.344639
299.176575	877.366516	6616.136719	2751.429688	32.656181
299.547028	875.657532	6392.040527	2680.767822	32.722717
299.917450	867.484314	6259.707031	2654.539063	33.141338
300.287872	857.899231	6173.070313	2639.975830	33.528114
300.658234	855.149963	6097.652832	2635.443359	33.958847
301.028564	862.728821	6033.306152	2626.824219	34.117962
301.398865	858.345032	5968.812012	2606.614014	34.209576
301.769135	867.558594	5911.450684	2590.489990	34.158768
302.139374	873.874329	5877.642090	2576.520996	34.027294
302.509583	869.193176	5839.673828	2542.044678	33.655731
302.879791	869.861877	5772.207031	2516.335938	33.585438
303.249939	863.471863	5682.449219	2477.921631	33.501915
303.620087	875.508972	5592.691406	2465.215576	33.700340
303.990173	871.719482	5519.429199	2439.581299	33.734074
304.360260	880.561523	5475.664551	2450.652100	34.168777
304.730286	886.208496	5456.123047	2458.008057	34.394508
305.100281	897.354004	5459.986816	2459.791260	34.244202
305.470276	886.282776	5458.724121	2443.593506	34.058628
305.840179	874.022888	5460.581543	2441.215820	34.169254
306.210144	860.797058	5468.680176	2456.893799	34.638393
306.579987	881.750488	5496.767090	2493.599121	34.926170
306.949890	890.815369	5536.221191	2509.574463	34.846451
307.319702	900.326111	5617.062500	2559.505859	35.176434
307.689484	877.812317	5704.368652	2593.016357	35.536812
308.059265	875.508972	5839.971191	2666.799072	36.082256
308.429016	860.054016	5948.229980	2705.510742	36.269516
308.798737	863.917725	6082.568848	2750.760986	36.155766
309.168396	860.202576	6199.150391	2764.581787	35.669559
309.538055	872.462585	6285.712891	2777.138672	35.185440
309.907684	875.434631	6297.155762	2765.621826	34.863232
310.277313	876.846375	6322.566895	2766.736084	34.704124
310.646851	873.131287	6336.981934	2760.048828	34.534573
311.016388	887.323059	6370.492676	2762.278076	34.194733
311.385895	913.700500	6334.529785	2756.779541	33.999947
311.755371	910.505554	6279.322754	2720.073975	33.705158
312.124817	894.456238	6213.639160	2687.157959	33.702576
312.494232	875.880432	6138.296387	2651.566895	33.742802
312.863617	873.279846	6075.064453	2649.932373	34.154675
313.232971	876.697754	6022.087402	2668.062256	34.814945
313.602295	861.911560	6013.021973	2689.758545	35.484524
313.971619	867.409973	6070.234863	2727.875977	35.758770
314.340820	864.289246	6100.625000	2730.476318	35.639175
314.710083	878.852600	6168.463379	2748.977539	35.354679
315.079285	885.539856	6170.543457	2723.863525	34.783775
315.448486	904.041199	6187.484375	2702.613037	34.041660
315.817596	912.065918	6070.086426	2634.997314	33.402958
316.186707	907.904968	5901.642090	2568.793701	33.259434
316.555786	890.072266	5695.525879	2501.178223	33.526615
316.924866	878.481018	5517.720215	2473.537598	34.381859
317.293884	881.304504	5430.042969	2468.410400	34.891125
317.662872	889.552185	5398.835449	2477.921143	35.224422
318.031830	875.583252	5429.448242	2480.447754	35.241810
318.400757	878.852539	5474.996094	2502.812988	35.333111
318.769684	867.112793	5520.470215	2521.760010	35.558136
319.138550	864.586426	5529.832031	2523.840576	35.566277
319.507416	859.905334	5513.335938	2500.212158	35.249413
319.876190	855.521484	5490.599609	2467.890625	34.786236
320.244995	887.025879	5484.209473	2458.751221	34.188873
320.613770	887.694580	5437.770508	2436.163330	34.031712
320.982483	898.171204	5387.839355	2439.804199	34.337353
321.351166	876.623474	5320.148926	2444.708252	35.289204
321.719818	873.651367	5312.198730	2478.887451	36.165798
322.088440	869.490417	5362.204590	2533.128174	37.029678
322.457062	872.908386	5475.962402	2602.749756	37.580296
322.825623	881.378906	5633.781250	2696.520020	38.194180
323.194183	875.806152	5803.414063	2757.225342	38.181187
323.562653	875.657532	5965.988281	2806.785156	37.937176
323.931183	868.747498	6092.674316	2812.060791	37.200237
324.299591	867.335632	6180.128906	2801.509766	36.405972
324.668060	868.004333	6210.742188	2757.299805	35.361935
325.036407	870.679260	6192.463379	2723.640625	34.818424
325.404755	875.806152	6122.989746	2702.613037	34.814999
325.773102	866.146790	6025.802246	2680.173584	35.157909
326.141388	869.118958	5919.103516	2648.594727	35.237255
326.509674	868.153015	5820.949707	2591.604736	34.797543
326.877899	876.623535	5758.238281	2541.227295	34.099449
327.246124	868.004395	5707.488770	2499.915039	33.720753
327.614288	882.790588	5660.529785	2500.137939	33.851730
327.982422	880.338623	5608.146484	2503.332764	34.328686
328.350525	895.867981	5576.122559	2544.199463	35.218845
328.718628	887.471680	5558.661621	2561.511963	35.837555
329.086700	895.273438	5575.602051	2598.737549	36.396252
329.454712	885.911316	5612.827637	2621.325439	36.713448
329.822693	883.979492	5669.148926	2662.415039	37.165569
330.190674	888.140381	5722.349609	2697.560303	37.429493
330.558563	894.901917	5755.786621	2721.485596	37.577187
330.926483	899.360107	5786.695801	2749.943604	37.864872
331.294312	882.121887	5839.524902	2786.352295	38.411858
331.662231	876.995056	5957.220703	2855.007813	38.935528
332.029999	870.679260	6074.990723	2915.712891	39.294991
332.397766	882.047546	6194.023438	2964.455811	39.202137
332.765503	892.970154	6272.041016	2993.359375	39.047436
333.133240	889.106384	6351.248047	3019.291016	38.999073
333.500916	882.344788	6409.056152	3054.138916	39.296318
333.868561	858.047791	6433.575684	3043.885498	39.204140
334.236176	852.920898	6422.281250	3033.854492	39.159500
334.603790	851.657776	6357.341309	3007.253906	39.152199
334.971344	857.527771	6314.468262	3026.944092	39.755177
335.338867	864.140686	6261.712891	3027.835693	40.086449
335.706360	856.933289	6253.911621	3043.439453	40.513523
336.073853	855.595886	6221.812500	3047.154297	40.839916
336.441284	858.939453	6228.500000	3079.921875	41.362461
336.808655	869.639099	6239.273926	3111.278076	41.746582
337.176086	868.375916	6253.168457	3151.772705	42.404545
337.543396	872.016663	6258.964355	3185.803711	42.951729
337.910706	865.923889	6237.268066	3204.007813	43.528843
338.277954	879.447021	6238.828125	3212.180908	43.526184
338.645264	876.029114	6211.410156	3205.493896	43.660706
339.012421	879.075500	6177.305176	3191.376221	43.642895
339.379669	878.183899	6144.760254	3158.088623	43.290073
339.746796	897.205383	6150.630859	3138.101318	42.655903
340.113953	903.966980	6184.587402	3115.512939	41.880417
340.481018	895.199219	6178.494141	3113.878662	41.994240
340.848114	875.731873	6202.196777	3119.748291	42.129562
341.215118	869.193176	6241.502441	3170.199951	42.830872
341.582153	878.035217	6353.402832	3271.474365	43.712849
341.949066	884.053772	6456.312500	3388.427002	44.943592
342.316010	886.357117	6576.385254	3549.960938	46.811783
342.682922	872.016785	6684.941895	3677.985107	48.271191
343.049835	861.391418	6828.271484	3881.128174	50.608307
343.416656	883.459290	7051.550781	4101.287109	52.168941
343.783478	889.106262	7325.282715	4289.570313	52.833607
344.150269	896.759521	7638.616699	4406.522949	52.059296
344.516998	885.911377	7885.747559	4416.405273	50.436810
344.883728	897.056824	8041.412109	4404.070801	49.087898
345.250427	894.381897	8053.671875	4349.904297	48.266273
345.617065	883.979492	7958.490234	4265.199219	47.794395
345.983704	874.988953	7813.525391	4189.633301	47.771519
346.350281	874.765930	7646.344238	4094.079834	47.541561
346.716827	872.611145	7472.921875	4019.702881	47.680965
347.083405	868.970276	7304.923828	3969.399658	48.173584
347.449860	923.211243	7241.691895	4013.610107	48.910477
347.816376	947.359619	7170.955566	4047.789063	49.817333
348.182770	948.028320	7076.368652	4067.702393	50.905693
348.549194	893.490173	6955.402832	4050.241455	52.075169
348.915558	876.846375	6970.635254	4091.330811	52.750175
349.281921	874.765869	7038.399902	4151.961426	53.169861
349.648193	874.245789	7117.011719	4201.224609	53.293343
350.014526	870.233398	7159.364746	4253.087891	53.788898
350.380737	871.496582	7228.243652	4283.700684	53.678463
350.746948	879.521301	7329.592285	4370.560547	54.124046
351.113159	875.063171	7374.024902	4408.900391	54.375408
351.479309	873.428528	7434.210449	4482.014160	55.002373
351.845428	864.512207	7469.800781	4542.793945	55.686920
352.211517	855.447266	7576.053223	4661.752441	56.636337
352.577576	861.465820	7675.099121	4770.531738	57.371239
352.943604	868.004395	7801.710938	4874.109863	57.777256
353.309601	898.022766	7962.354004	4993.439941	57.973179
353.675537	892.450012	8155.540527	5115.965332	58.150387
354.041473	880.487305	8354.671875	5222.589355	58.094658
354.407379	862.506042	8504.837891	5304.248535	58.120251
354.773254	865.032288	8690.743164	5417.560059	58.173985
355.139038	873.205566	8868.549805	5555.316895	58.560471
355.504913	891.781250	9124.151367	5768.268066	59.235516
355.870636	883.236511	9369.499023	5971.709473	59.961296
356.236389	885.985657	9625.842773	6177.899902	60.549202
356.602081	871.570984	9895.785156	6355.186035	60.765572
356.967804	879.149841	10151.757813	6504.386230	60.665092
357.333405	872.016785	10411.965820	6611.158691	60.159042
357.699036	864.363586	10613.846680	6617.400391	59.008629
358.064606	859.608215	10764.161133	6596.224121	57.918980
358.430176	860.574219	10805.622070	6585.078613	57.561356
358.795654	861.465820	10811.714844	6643.034668	58.104767
359.161163	864.066406	10804.209961	6788.816406	59.604271
359.526581	861.317200	10926.512695	7035.873047	61.345612
359.892029	884.202454	11207.153320	7422.321777	63.335754
360.257416	884.276672	11614.852539	7880.843750	65.202156
360.622772	885.316895	12126.055664	8250.574219	65.522896
360.988098	869.267517	12628.937500	8506.101563	64.940887
361.353394	874.617371	13132.262695	8570.669922	62.785736
361.718658	888.437683	13428.953125	8517.914063	60.838619
362.083893	884.350891	13483.863281	8222.041992	58.237896
362.449097	889.997864	13245.054688	7798.070313	55.912914
362.814209	881.527405	12775.833008	7272.973145	53.735340
363.179382	885.242615	12116.840820	6817.646484	52.818874
363.544434	878.183777	11394.323242	6478.454590	53.254059
363.909546	873.576965	10738.303711	6271.595703	54.720406
364.274536	877.143555	10264.326172	6170.246582	56.386494
364.639587	883.905090	9930.186523	6084.724121	57.491234
365.004517	886.134277	9710.622070	6041.107910	58.416687
365.369507	883.830872	9533.187500	5973.864746	58.848698
365.734344	871.199402	9430.129883	5964.799316	59.512108
366.099274	869.638977	9366.750000	5963.536621	59.948578
366.464081	870.827881	9306.861328	5948.750000	60.193241
366.828918	878.332458	9241.103516	5923.561035	60.329624
367.193665	885.094055	9161.600586	5857.803223	60.082218
367.558411	898.840027	9105.575195	5827.785156	60.059757
367.923126	894.902039	9018.567383	5759.278809	59.879089
368.287781	905.675964	8944.487305	5729.854004	60.011089
368.652435	884.871094	8833.033203	5686.759277	60.415077
369.017059	896.908203	8784.884766	5685.941406	60.713078
369.381653	897.131104	8744.910156	5706.820313	61.287266
369.746185	901.440735	8759.844727	5756.603027	61.783058
370.110687	895.793701	8778.049805	5831.500488	62.617950
370.475220	881.601868	8824.786133	5882.249512	62.955200
370.839661	890.889648	8931.038086	5949.121094	62.912167
371.204041	888.809265	9029.118164	5986.718750	62.625504
371.568451	885.614075	9089.303711	5994.892090	62.280243
371.932770	870.307800	9095.841797	5959.673340	61.872768
372.297150	878.258118	9089.823242	5910.558594	61.283081
372.661377	878.332458	9092.646484	5905.431641	61.199253
373.025696	885.985596	9079.867188	5932.031250	61.583092
373.389862	872.388184	9067.979492	5974.087402	62.249310
373.754059	888.734863	9105.129883	6030.557129	62.580032
374.118225	876.772156	9172.373047	6095.572266	62.910458
374.482361	877.069336	9312.136719	6224.413574	63.394211
374.846436	855.224304	9467.281250	6384.089844	64.199135
375.210510	862.283020	9706.312500	6606.626465	64.951653
375.574524	876.772156	9971.499023	6852.122559	65.701263
375.938538	889.552246	10282.530273	7100.962402	66.128227
376.302460	891.632629	10574.094727	7292.143066	66.104164
376.666412	894.604797	10851.763672	7412.662598	65.461014
377.030304	894.827637	11057.062500	7418.903809	64.199226
377.394196	894.307617	11155.067383	7321.789551	62.641384
377.757996	891.409668	11174.980469	7142.571777	60.787857
378.121796	885.762756	11032.468750	6914.610840	59.416801
378.485565	887.100159	10840.543945	6691.033691	58.310810
378.849304	864.289246	10520.670898	6508.546875	58.451061
379.212982	863.992004	10268.264648	6414.256348	59.018539
379.576630	870.753601	10003.152344	6365.365723	60.166149
379.940277	889.997986	9860.713867	6376.361816	61.158596
380.303864	892.227051	9723.700195	6362.319824	61.938625
380.667450	881.230286	9692.567383	6386.541504	62.479862
381.030945	873.577087	9647.614258	6369.972656	62.643860
381.394501	891.261169	9685.954102	6414.182129	62.798332
381.757935	915.483887	9708.913086	6482.837891	63.312656
382.121399	921.651062	9756.690430	6531.654785	63.497215
382.484741	914.072083	9878.621094	6647.790527	63.959919
382.848145	887.545959	9972.316406	6762.439941	64.667503
383.211487	884.796814	10091.944336	6887.788574	65.199257
383.574768	872.611145	10217.069336	6958.673340	65.130180
383.938019	870.604980	10319.384766	6979.105957	64.648575
384.301270	871.050781	10432.176758	7026.808594	64.383186
384.664459	870.902161	10453.278320	7054.151855	64.527313
385.027649	879.372742	10492.956055	7090.485840	64.607681
385.390778	885.391174	10560.051758	7194.212402	65.209747
385.753876	897.131042	10638.886719	7275.647949	65.476051
386.116943	894.010254	10727.009766	7380.191406	65.963402
386.479980	889.775085	10773.894531	7415.114746	66.018425
386.842987	888.586182	10858.599609	7479.238281	66.104744
387.205994	897.651184	10941.000977	7504.351563	65.781837
387.568909	889.032043	10989.149414	7478.865723	65.245117
387.931793	882.493408	10942.562500	7405.157715	64.837166
388.294678	873.056946	10885.720703	7354.260254	64.730057
388.657471	876.846375	10863.355469	7396.019043	65.279800
389.020294	895.496338	10848.270508	7486.444824	66.222221
389.383057	906.418884	10930.523438	7661.205078	67.385429
389.745819	907.013367	10990.858398	7820.138184	68.556442
390.108521	896.388000	11169.333008	8028.111328	69.422379
390.471191	889.626465	11355.015625	8237.793945	70.213997
390.833801	885.911316	11613.738281	8434.993164	70.369164
391.196442	879.744202	11859.458008	8583.896484	70.167152
391.558960	872.016785	12046.700195	8630.781250	69.431625
391.921509	872.388245	12167.071289	8622.385742	68.616341
392.284027	871.050781	12237.213867	8594.223633	67.948814
392.646484	870.604980	12259.577148	8581.889648	67.708344
393.008911	865.329407	12185.497070	8556.551758	67.942650
393.371307	866.295410	12127.096680	8564.354492	68.361557
393.733673	873.279846	12046.848633	8572.750977	68.907898
394.096008	873.131165	12016.979492	8553.357422	68.918976
394.458344	875.583252	11963.629883	8481.209961	68.593025
394.820587	867.855774	11872.163086	8320.269531	67.722694
395.182831	870.010559	11755.953125	8149.447754	66.870064
395.545013	862.134460	11534.160156	7954.626465	66.458725
395.907196	871.942383	11310.805664	7807.580566	66.440552
396.269287	881.527527	11072.516602	7738.775879	67.287369
396.631409	885.762695	10897.534180	7700.139160	68.063644
396.993469	891.781189	10757.473633	7711.507813	69.125679
397.355530	895.273438	10666.601563	7730.157715	69.948364
397.717499	895.422119	10637.325195	7774.145020	70.609634
398.079468	883.459412	10630.043945	7788.187988	70.842545
398.441376	872.313965	10675.741211	7814.119629	70.809982
398.803284	865.255188	10662.812500	7823.705078	71.022285
399.165131	875.434753	10679.381836	7860.113281	71.243538
399.526978	887.174500	10650.922852	7838.937500	71.199738
399.888763	890.666748	10653.375000	7825.117188	71.029984
400.250519	882.642029	10643.790039	7839.457031	71.270454
400.612244	898.840088	10680.496094	7915.989746	71.737846
400.973938	913.700623	10676.781250	8021.425293	72.802063
401.335602	919.496155	10722.625977	8103.083496	73.278511
401.697205	922.394043	10845.522461	8253.323242	73.877197
402.058807	916.078308	11041.383789	8406.386719	73.976120
402.420349	917.787292	11331.387695	8638.583008	74.141464
402.781860	894.679138	11629.043945	8863.422852	74.235817
403.143341	894.679016	12026.934570	9089.599609	73.614197
403.504822	890.815369	12411.006836	9310.130859	73.083122
403.866241	895.645020	12829.405273	9486.971680	71.991783
404.227631	891.409729	13128.770508	9619.750977	71.325356
404.588959	897.056824	13401.164063	9687.143555	70.297592
404.950287	894.233215	13445.151367	9641.743164	69.696175
405.311554	893.193054	13343.653320	9564.320313	69.645035
405.672821	893.415955	13046.963867	9447.368164	70.382347
406.034027	887.174561	12674.409180	9324.471680	71.579956
406.395203	890.443848	12276.295898	9157.067383	72.604347
406.756348	882.716309	11996.100586	9027.706055	73.289909
407.117493	887.917480	11823.644531	8982.678711	74.021248
407.478516	883.013489	11781.143555	9036.250977	74.813179
407.839600	882.790588	11769.476563	9098.961914	75.469902
408.200592	891.186829	11850.020508	9223.047852	76.028725
408.561554	898.319824	11867.629883	9347.801758	77.028381
408.922485	898.245605	11914.663086	9477.164063	77.873932
409.283417	893.936035	11925.437500	9581.856445	78.755547
409.644257	897.502625	12064.309570	9677.112305	78.622383
410.005096	907.384827	12211.057617	9772.888672	78.430298
410.365906	907.607727	12309.731445	9752.306641	77.570625
410.726715	900.920471	12379.352539	9757.656250	77.159805
411.087433	894.530457	12354.758789	9693.755859	76.780540
411.448120	892.524231	12340.789063	9665.668945	76.632965
411.808807	892.970032	12269.385742	9614.698242	76.664993
412.169434	890.815247	12156.668945	9590.252930	77.219513
412.530029	911.620056	12150.204102	9656.010742	77.806870
412.890564	914.220703	12154.440430	9730.907227	78.438736
413.251099	925.886230	12261.137695	9870.670898	78.911217
413.611572	912.140198	12326.821289	9990.965820	79.536392
413.972076	914.815186	12456.182617	10123.819336	79.791275
414.332489	906.418945	12558.051758	10237.131836	80.080734
414.692871	910.877014	12739.424805	10427.570313	80.455299
415.053223	908.870789	12910.171875	10593.635742	80.697624
415.413574	912.957458	13178.331055	10836.160156	80.904205
415.773834	905.973083	13392.397461	11039.750000	81.158356
416.134094	910.208313	13634.028320	11310.508789	81.738823
416.494263	903.372498	13864.441406	11562.023438	82.235893
416.854462	902.257996	14230.010742	11898.242188	82.504410
417.214630	903.892578	14634.143555	12278.598633	82.844124
417.574738	908.127869	15043.403320	12650.557617	83.071815
417.934784	912.363098	15484.389648	13073.562500	83.455788
418.294861	918.381653	16039.133789	13559.578125	83.601639
418.654846	915.929626	16637.865234	14094.929688	83.825554
419.014832	915.632385	17287.716797	14645.215820	83.859718
419.374756	896.536621	17923.154297	15225.965820	84.158997
419.734680	925.217468	18688.396484	15876.782227	84.171669
420.094543	923.954346	19320.787109	16380.926758	84.019753
420.454376	931.756165	19865.650391	16708.974609	83.327911
420.814148	908.573730	20286.947266	16900.451172	82.524353
421.173920	902.183655	20719.759766	17063.173828	81.548775
421.533691	907.979309	21067.791016	17153.005859	80.581238
421.893341	900.474670	21244.113281	17167.570313	79.961586
422.253021	898.914307	21294.937500	17122.095703	79.540909
422.612640	894.233215	21225.240234	17068.597656	79.555153
422.972260	902.406555	21151.458984	17113.031250	80.056213
423.331757	902.480896	21096.177734	17194.541016	80.678940
423.691315	923.582825	21238.541016	17383.939453	81.025795
424.050781	937.105957	21387.740234	17405.189453	80.526031
424.410248	939.557922	21410.996094	17264.384766	79.744408
424.769653	913.849121	21297.982422	16953.353516	78.686218
425.128998	901.440613	21117.353516	16584.814453	77.579353
425.488373	899.731628	20800.007813	16184.842773	76.808540
425.847656	903.669678	20399.591797	15795.273438	76.383171
426.206940	908.425049	19983.791016	15429.183594	76.123100
426.566193	918.604492	19543.693359	15062.871094	75.942001
426.925385	912.808899	19094.757813	14693.585938	75.793732
427.284576	900.474670	18525.078125	14291.906250	75.981461
427.643677	900.400391	18070.125000	13995.734375	76.269913
428.002777	904.264160	17658.412109	13776.838867	76.832161
428.361847	915.335205	17281.400391	13575.627930	77.356972
428.720856	912.288818	16921.330078	13376.644531	77.858231
429.079865	910.728516	16688.392578	13223.952148	78.042122
429.438812	902.555176	16534.212891	13194.899414	78.637489
429.797760	899.360168	16456.937500	13197.203125	79.047287
430.156616	906.641785	16248.444336	13065.390625	79.252411
430.515503	909.465332	16108.831055	12969.911133	79.348351
430.874268	905.304382	16025.536133	12902.518555	79.345436
431.233093	892.970154	16041.213867	12990.195313	79.858932
431.591827	891.558350	16121.757813	13099.718750	80.157585
431.950562	892.672913	16197.621094	13274.924805	80.903587
432.309204	901.514893	16333.596680	13411.567383	81.065231
432.667877	900.920410	16519.576172	13571.614258	81.125374
433.026459	907.904968	16850.371094	13692.579102	80.192574
433.385010	907.459167	17288.087891	13846.609375	78.990562
433.743561	904.709900	17903.833984	14000.043945	77.035339
434.102051	907.756287	18540.236328	14148.575195	75.093346
434.460510	921.948181	19289.134766	14373.266602	73.235588
434.818939	925.068909	19888.458984	14473.723633	71.446373
435.177338	918.827454	20424.332031	14531.754883	69.790184
435.535675	904.487000	20674.435547	14493.192383	68.734146
435.894012	917.192810	20674.210938	14457.155273	68.532425
436.252289	921.725281	20530.509766	14551.371094	69.507851
436.610535	933.465088	20071.986328	14495.643555	70.863251
436.968719	954.938538	19647.570313	14629.834961	73.156616
437.326935	952.412292	19065.333984	14644.992188	75.595642
437.685028	951.149170	18609.708984	14793.299805	78.387764
438.043152	926.332031	18259.001953	14904.679688	80.647400
438.401215	922.245361	18214.791016	15134.795898	82.188889
438.759277	911.025635	18396.535156	15463.437500	83.225555
439.117249	920.239075	18862.414063	15912.075195	83.556396
439.475250	937.031555	19266.992188	16272.890625	83.665535
439.833130	949.142883	19799.224609	16653.468750	83.311714
440.191071	940.672363	20079.865234	16797.021484	82.847534
440.548889	928.263855	20326.029297	16900.302734	82.339584
440.906708	913.180420	20455.244141	16820.279297	81.399277
441.264496	912.957520	20468.244141	16686.533203	80.661438
441.622223	913.403320	20397.138672	16450.623047	79.744568
441.979950	919.942078	20172.445313	16179.641602	79.260857
442.337616	918.604492	19997.982422	15931.543945	78.686729
442.695251	921.799561	19745.205078	15770.901367	78.886368
443.052887	911.620117	19511.152344	15670.073242	79.348518
443.410461	898.840027	19380.156250	15723.049805	80.211876
443.768005	902.406555	19383.869141	15891.717773	81.104576
444.125458	912.511719	19468.873047	16122.129883	81.964439
444.482941	921.502380	19695.718750	16469.421875	82.815277
444.840393	919.124695	20027.333984	16881.281250	83.535599
445.197754	919.050476	20500.716797	17318.552734	83.749268
445.555084	911.248718	20844.960938	17651.724609	83.980728
445.912415	902.257996	21234.531250	17911.412109	83.655937
446.269714	903.743958	21425.710938	18042.779297	83.515556
446.626953	912.214539	21576.396484	18017.294922	82.776466
446.984161	918.158691	21637.546875	17861.259766	81.774139
447.341309	935.545593	21711.105469	17699.427734	80.690399
447.698456	948.028503	21722.175781	17509.361328	79.720879
448.055542	951.817871	21632.271484	17328.806641	79.190666
448.412598	939.186340	21347.837891	16993.701172	78.665237
448.769653	929.452820	20964.068359	16620.404297	78.319206
449.126617	927.595154	20485.111328	16183.057617	78.003075
449.483582	952.635193	20146.365234	15946.403320	78.118050
449.840515	957.464844	19761.849609	15721.266602	78.512550
450.197388	950.331787	19485.666016	15584.179688	78.951088
450.554230	936.288574	19258.744141	15463.065430	79.284012
450.911041	927.446533	19143.501953	15410.682617	79.508087
451.267822	932.647766	19067.861328	15425.616211	79.916176
451.624573	908.350769	18967.107422	15419.597656	80.355743
451.981262	903.744080	18917.769531	15386.459961	80.396889
452.337921	901.143372	18750.439453	15237.481445	80.318779
452.694580	902.034973	18542.988281	14957.805664	79.676933
453.051147	907.384827	18354.853516	14782.823242	79.526939
453.407715	906.493164	18099.324219	14497.129883	79.048271
453.764221	940.895325	18026.283203	14434.343750	78.976540
454.120728	952.337891	17693.558594	14100.948242	78.540329
454.477142	951.892151	17579.132813	14034.297852	78.680557
454.833557	933.910889	17370.935547	13904.714844	78.912109
455.189911	926.777832	17297.451172	13916.379883	79.346771
455.546265	931.533203	17217.203125	13950.261719	79.939781
455.902557	932.721985	17154.044922	14003.090820	80.575233
456.258820	932.499207	17269.216797	14267.161133	81.623878
456.615051	933.539368	17420.867188	14493.562500	82.245125
456.971252	941.638367	17543.615234	14803.405273	83.494675
457.327393	941.489746	17837.259766	15206.051758	84.426826
457.683502	941.118225	18237.677734	15791.112305	85.855194
458.039612	941.118225	18950.537109	16608.367188	86.994759
458.395630	955.087158	19710.060547	17458.242188	87.993484
458.751648	949.440125	20425.445313	18123.697266	88.181625
459.107605	941.192566	21238.763672	18701.177734	87.498077
459.463562	927.595154	21821.818359	18883.960938	85.939377
459.819458	939.186340	22206.111328	18847.330078	84.206551
460.175323	923.211243	22259.091797	18378.333984	81.811119
460.531158	925.960449	22190.583984	17830.421875	79.495697
460.886932	922.468262	21923.539063	17192.162109	77.470779
461.242676	937.923157	21496.519531	16613.419922	76.247894
461.598419	941.341125	20892.291016	16131.046875	76.135254
461.954102	938.666260	20226.240234	15650.382813	76.275620
462.309723	940.598206	19524.376953	15235.328125	76.920464
462.665344	928.635437	18929.138672	14887.144531	77.545097
463.020905	925.514709	18542.837891	14753.993164	78.493645
463.376373	926.183411	18295.781250	14696.260742	79.276894
463.731873	941.638428	18105.863281	14658.366211	79.914635
464.087341	943.050110	17988.392578	14618.019531	80.227020
464.442749	945.204895	17941.580078	14703.914063	80.950844
464.798126	934.728210	17902.570313	14822.872070	81.849792
465.153503	933.316406	18011.275391	14994.661133	82.336212
465.508820	914.592102	18112.773438	15153.965820	82.795815
465.864105	914.740723	18277.726563	15252.120117	82.574387
466.219330	926.926453	18489.044922	15485.801758	82.899307
466.574524	936.139954	18612.607422	15526.593750	82.541687
466.929657	936.957336	18649.908203	15460.241211	81.992462
467.284790	945.353516	18634.677734	15289.643555	81.090096
467.639893	946.096497	18576.421875	15056.703125	80.035995
467.994934	940.152283	18541.351563	14882.687500	79.213554
468.349945	924.994568	18362.802734	14682.440430	78.894356
468.704926	925.143127	18189.750000	14566.378906	79.012718
469.059875	949.217285	17958.744141	14452.026367	79.383797
469.414764	950.183167	17770.312500	14338.864258	79.599159
469.769653	943.718933	17661.013672	14311.000977	79.960800
470.124451	930.047119	17672.607422	14388.277344	80.383347
470.479248	926.554871	17636.865234	14447.049805	80.911095
470.834015	929.601257	17594.958984	14492.002930	81.380798
471.188721	926.777771	17700.541016	14654.354492	81.839577
471.543365	940.449402	17876.861328	14877.708008	82.291687
471.898010	947.879700	18078.074219	15077.433594	82.483322
472.252625	953.303894	18278.693359	15314.235352	82.889519
472.607178	949.737305	18526.492188	15501.331055	82.788857
472.961700	950.703308	18696.201172	15644.585938	82.803436
473.316193	958.876648	18867.169922	15688.648438	82.251122
473.670654	956.350281	18909.892578	15649.043945	81.837296
474.025055	965.861023	19039.998047	15677.652344	81.396919
474.379456	948.028381	19082.945313	15689.540039	81.288010
474.733795	953.155273	19212.603516	15830.864258	81.479507
475.088104	930.195801	19365.814453	16040.026367	81.959984
475.442383	942.901550	19543.025391	16307.440430	82.604500
475.796570	934.431091	19770.021484	16588.082031	83.106773
476.150787	956.276062	20110.328125	16974.753906	83.629707
476.504944	957.241943	20474.560547	17311.048828	83.791260
476.859070	972.919739	20825.642578	17633.001953	83.918373
477.213135	963.632019	21106.505859	17835.849609	83.762711
477.567200	955.755920	21456.992188	18071.759766	83.487663
477.921173	943.347351	21807.330078	18341.775391	83.389771
478.275146	947.211121	22191.771484	18590.763672	83.049744
478.629089	960.659912	22435.335938	18823.851563	83.182587
478.983002	972.474060	22835.009766	19130.796875	83.056801
479.336823	975.371826	23241.966797	19605.443359	83.668259
479.690643	968.684570	23788.833984	20212.197266	84.326851
480.044403	959.099548	24388.828125	20964.509766	85.384727
480.398163	967.718689	25331.728516	21976.291016	86.227890
480.751862	968.090149	26542.271484	23380.390625	87.636436
481.105499	964.300781	28217.201172	25311.890625	89.339447
481.459137	952.783875	30512.634766	28073.796875	91.749489
481.812744	952.338074	33480.953125	31761.888672	94.715225
482.166290	966.306946	37165.105469	36195.457031	97.321327
482.519806	971.805359	41348.277344	40861.746094	98.795013
482.873291	975.817688	45704.343750	45031.386719	98.495461
483.226715	983.916687	49577.375000	48038.792969	96.833771
483.580139	982.727722	51805.863281	48821.417969	94.127785
483.933502	990.975403	53572.261719	48539.515625	90.428635
484.286804	998.182800	54244.105469	46802.910156	86.024857
484.640106	1001.154968	54707.160156	44677.855469	81.325546
484.993347	991.346924	53968.886719	41908.371094	77.234665
485.346558	971.953918	52692.667969	39753.964844	74.983521
485.699738	961.031433	51301.718750	38785.277344	75.136528
486.052887	954.715637	49860.988281	38710.675781	77.200653
486.405975	956.350342	49189.738281	39479.191406	79.867584
486.759064	967.495789	48847.425781	40265.457031	82.076065
487.112061	977.823792	48889.109375	40738.621094	82.988373
487.464996	975.000305	48909.019531	40494.093750	82.444771
487.817963	970.987976	48801.281250	39597.480469	80.757385
488.170868	960.734192	48229.378906	38042.324219	78.448601
488.523743	963.483337	47287.667969	36207.191406	76.080582
488.876587	966.158386	46072.515625	34450.234375	74.233604
489.229401	995.136414	44796.144531	33409.328125	74.003304
489.582153	992.758728	43494.808594	33021.765625	75.358734
489.934845	1003.904114	42614.246094	33471.890625	78.028641
490.287537	981.241760	42352.105469	34338.707031	80.630333
490.640198	995.582214	42608.078125	35453.394531	82.806404
490.992798	977.526611	42845.625000	36047.148438	83.762154
491.345337	975.966248	43082.949219	36021.289063	83.229240
491.697876	971.285156	42834.925781	34974.886719	81.224663
492.050354	1006.430359	42356.265625	33372.175781	78.272972
492.402832	1031.098999	41231.394531	31102.599609	74.804176
492.755219	1038.900757	39721.339844	28782.052734	71.720276
493.107605	1010.071228	37657.214844	26572.955078	69.754097
493.459930	992.833008	35556.230469	24893.716797	69.150848
493.812225	991.792786	33409.847656	23660.884766	69.927368
494.164490	992.387146	31668.193359	22875.208984	71.335770
494.516724	986.294250	30203.015625	22414.603516	73.342621
494.868896	975.223145	29236.859375	22299.734375	75.453918
495.221039	983.768005	28675.275391	22460.599609	77.557465
495.573120	987.706055	28307.552734	22654.677734	79.308540
495.925201	1032.659180	28227.376953	22893.335938	80.385742
496.277222	1048.411499	28216.906250	23013.853516	80.848946
496.629211	1049.228638	28296.708984	23083.849609	80.868469
496.981140	996.473816	28263.642578	22979.380859	80.620422
497.333069	979.830017	28122.912109	22714.937500	80.076050
497.684967	971.062256	28000.609375	22402.343750	79.288345
498.036804	966.306885	27724.427734	21947.539063	78.410706
498.388580	964.449280	27371.859375	21502.166016	77.772552
498.740326	976.040527	26895.501953	21057.541016	77.476532
499.092072	983.916687	26379.322266	20661.728516	77.485718
499.443756	977.229431	25896.578125	20267.923828	77.412514
499.795410	978.195313	25418.960938	19917.513672	77.490692
500.147003	991.569824	25087.273438	19696.908203	77.629349
500.498566	1003.606873	24694.062500	19459.732422	77.905319
500.850098	995.433594	24365.943359	19292.181641	78.289894
501.201599	987.557556	23998.291016	19082.646484	78.637604
501.553009	983.247864	23745.960938	19006.412109	79.178452
501.904449	991.198242	23545.193359	18919.701172	79.491470
502.255859	1005.984436	23477.208984	18978.474609	79.980019
502.607178	1009.328125	23469.181641	19061.099609	80.373505
502.958405	997.142395	23490.431641	19127.228516	80.602203
503.309692	976.634949	23472.228516	19183.328125	80.934486
503.660919	966.455383	23490.283203	19261.048828	81.223289
504.012115	989.266357	23511.533203	19281.183594	81.217033
504.363251	995.730774	23541.552734	19240.390625	80.922577
504.714294	998.702820	23527.955078	19112.517578	80.401314
505.065369	1002.566650	23518.296875	19061.990234	80.208031
505.416443	1011.111389	23418.431641	18947.044922	80.044975
505.767395	1017.947266	23320.578125	18950.312500	80.404709
506.118317	1005.241516	23177.099609	18891.095703	80.669174
506.469238	998.702820	23191.585938	19005.001953	81.135468
506.820160	992.387146	23208.009766	19094.238281	81.482529
507.170929	1007.247620	23352.380859	19356.005859	82.115234
507.521729	1010.739990	23521.789063	19557.591797	82.389992
507.872498	1010.962891	23726.791016	19814.900391	82.779007
508.223236	989.340820	23965.080078	20021.611328	82.836380
508.573883	983.619446	24198.318359	20183.888672	82.707382
508.924500	992.758606	24456.146484	20355.080078	82.521423
509.275116	993.650330	24585.806641	20492.689453	82.650520
509.625702	1000.634705	24768.146484	20719.685547	82.966408
509.976196	997.513977	24966.900391	20833.070313	82.753708
510.326660	1013.117676	25212.322266	21003.818359	82.608917
510.677124	1009.699707	25414.724609	21142.912109	82.496178
511.027557	1030.950317	25584.583984	21286.613281	82.495583
511.377869	1028.349609	25753.619141	21411.888672	82.440109
511.728180	1028.423950	25832.382813	21446.142578	82.316368
512.078430	1012.820374	25876.888672	21450.376953	82.197151
512.428650	998.479980	25908.318359	21324.806641	81.599594
512.778931	1010.739929	25928.750000	21196.708984	81.009552
513.129028	1009.773987	25904.900391	21044.759766	80.477539
513.479126	1014.306396	25777.843750	20894.222656	80.278984
513.829285	998.851501	25622.179688	20783.658203	80.349846
514.179382	989.266418	25435.232422	20703.412109	80.643761
514.529297	993.055847	25363.234375	20761.591797	81.117729
514.879272	994.913391	25352.833984	20847.189453	81.502342
515.229187	1003.086731	25358.328125	20984.425781	82.041229
515.579163	990.752441	25528.630859	21289.437500	82.723877
515.928955	986.963074	25747.898438	21748.705078	83.848778
516.278748	983.545105	26243.197266	22391.869141	84.753044
516.628540	995.879395	26763.244141	23101.013672	85.787331
516.978333	1002.640869	27471.724609	23843.220703	86.291542
517.327942	995.284912	28162.884766	24613.224609	86.934212
517.677612	993.130127	28898.484375	25218.046875	86.810997
518.027222	984.139465	29540.906250	25633.474609	86.316971
518.376831	985.848450	30075.291016	25717.287109	85.018608
518.726379	986.517273	30347.236328	25545.052734	83.644188
519.075867	991.718445	30251.609375	25038.234375	82.182518
519.425293	1016.238281	30116.529297	24529.556641	80.800972
519.774658	1018.467346	29773.177734	23919.906250	79.644127
520.124084	1028.201050	29425.064453	23484.787109	79.081223
520.473389	1013.191895	28886.000000	23005.830078	78.903564
520.822693	1012.894714	28420.791016	22705.427734	79.147018
521.171997	1018.913269	28042.587891	22486.828125	79.441139
521.521240	1033.773804	27713.353516	22422.406250	80.168549
521.870361	1034.368286	27502.333984	22480.882813	81.028191
522.219482	1025.229004	27406.111328	22643.531250	81.946854
522.568604	1005.613037	27453.591797	22902.251953	82.791351
522.917664	1008.287903	27629.689453	23239.291016	83.508011
523.266724	1013.340515	27984.560547	23798.345703	84.478958
523.615662	1023.817200	28552.976563	24553.853516	85.473137
523.964600	1031.247437	29271.929688	25559.837891	86.855515
524.313538	1035.334106	30194.101563	26632.771484	87.786415
524.662354	1029.984253	31224.234375	27798.580078	88.654617
525.011169	1048.188354	32392.273438	28910.296875	88.891121
525.359985	1032.139038	33588.472656	30005.593750	88.994835
525.708740	1026.417603	34838.093750	31132.023438	89.039078
526.057434	1016.089661	36262.179688	32504.990234	89.340126
526.406067	1026.269165	37950.933594	34322.949219	90.174629
526.754700	1029.687134	39988.386719	36720.625000	91.612244
527.103333	1016.238281	42483.546875	39666.652344	93.206955
527.451782	1014.529358	45212.687500	42848.964844	94.651985
527.800293	1014.157898	47962.628906	45521.187500	94.799744
528.148743	1016.089661	50085.683594	47026.417969	93.765457
528.497131	1000.188904	51566.683594	47184.894531	91.334602
528.845642	1005.167175	52087.324219	46022.136719	88.126602
529.193909	998.331299	51922.296875	43874.937500	84.197304
529.542175	1009.625305	50947.515625	40911.894531	79.903793
529.890503	1009.179504	49310.847656	37814.214844	76.198273
530.238770	1012.374512	47035.480469	34930.601563	73.698257
530.586914	1018.838867	44790.269531	32952.441406	72.955353
530.934998	1029.092651	42612.386719	31764.562500	73.913025
531.283142	1031.544556	41152.042969	31663.880859	76.350830
531.631226	1026.417847	39924.187500	32003.742188	79.637787
531.979248	1014.083557	39587.449219	32944.191406	82.777603
532.327148	1009.996887	39665.988281	33923.503906	85.144646
532.675110	1006.950500	40039.730469	34716.535156	86.362244
533.023071	1006.727722	40295.703125	34870.417969	86.191330
533.370850	1010.517090	40429.449219	34378.160156	84.648773
533.718689	1016.238342	40400.988281	33425.824219	82.289680
534.066467	1018.913269	40013.574219	32125.521484	79.771454
534.414246	1013.860657	39126.550781	30778.861328	78.097343
534.761963	1020.473572	38154.968750	29694.710938	77.217255
535.109619	1033.773804	37366.468750	29139.447266	77.356422
535.457153	1043.433105	36677.312500	28881.320313	78.121964
535.804749	1036.077148	36101.687500	28825.962891	79.251114
536.152344	1026.194824	35585.207031	28660.343750	79.962204
536.499817	1027.532227	35115.542969	28300.791016	80.008354
536.847229	1030.355835	34740.832031	27837.884766	79.522842
537.194641	1027.903931	34328.601563	27213.224609	78.632942
537.542114	1032.510620	34084.292969	26677.873047	77.591469
537.889404	1029.538574	33726.453125	26059.451172	76.551300
538.236694	1035.779907	33508.597656	25766.251953	76.157455
538.583984	1024.783081	33514.988281	25875.552734	76.486961
538.931213	1031.619019	34040.378906	26633.216797	77.560005
539.278381	1028.646851	35143.550781	28040.062500	79.177765
539.625488	1036.745972	36835.574219	29920.218750	80.682732
539.972595	1048.708618	39148.914063	32265.361328	81.933029
540.319641	1049.451660	41812.144531	34518.296875	82.106560
540.666687	1060.597046	44521.593750	36443.847656	81.413803
541.013611	1048.114258	46912.285156	37642.203125	79.787964
541.360596	1051.829346	48464.394531	37955.687500	77.835609
541.707458	1039.272095	49598.406250	37605.648438	75.302773
542.054260	1051.755005	49859.730469	36448.011719	72.521461
542.401062	1049.526001	49854.152344	35089.609375	69.747658
542.747864	1062.380249	49037.343750	33307.234375	67.211830
543.094666	1058.442261	48003.199219	31716.041016	65.305695
543.441284	1064.535156	46571.609375	30069.642578	63.737579
543.787903	1049.748901	45407.281250	28919.140625	62.828999
544.134460	1042.690063	44538.832031	27945.552734	61.851151
544.481079	1043.210205	44140.421875	27476.921875	61.335087
544.827637	1058.590942	43941.218750	27130.005859	60.797146
545.174072	1057.996460	43890.019531	27035.119141	60.648834
545.520508	1059.185303	43827.015625	26986.525391	60.623459
545.866943	1048.114136	43647.277344	26918.462891	60.729713
546.213318	1054.578491	43225.238281	26744.076172	60.917942
546.559631	1064.015015	42554.878906	26288.896484	60.796230
546.905823	1068.101685	41401.625000	25609.396484	60.845898
547.252136	1059.705444	39895.582031	24629.865234	60.691719
547.598389	1048.039917	37882.945313	23526.767578	61.025616
547.944458	1049.823120	35919.644531	22400.859375	61.230705
548.290588	1063.940552	33873.421875	21348.658203	61.825779
548.636658	1050.120483	32114.974609	20435.255859	62.402145
548.982727	1034.442505	30315.437500	19672.464844	63.652283
549.328735	1022.702637	28804.640625	19061.546875	64.930115
549.674622	1033.773804	27447.650391	18572.115234	66.398209
550.020569	1037.934692	26403.546875	18196.439453	67.644745
550.366455	1038.380493	25452.396484	17952.798828	69.281586
550.712280	1026.937988	24681.802734	17807.017578	70.937119
551.058044	1029.315552	24185.984375	17829.830078	72.551514
551.403748	1029.166992	23768.921875	17866.310547	74.042770
551.749512	1046.479492	23520.156250	17988.615234	75.386581
552.095154	1041.426880	23236.093750	18015.140625	76.476540
552.440735	1062.603149	23088.458984	18041.591797	77.086624
552.786316	1046.182251	22923.132813	17964.093750	77.332130
553.131897	1038.751953	22684.546875	17808.429688	77.473145
553.477417	1012.448792	22367.867188	17537.298828	77.380127
553.822815	1015.495300	22043.462891	17181.611328	76.879120
554.168213	1023.297119	21691.935547	16861.218750	76.627792
554.513672	1023.371399	21306.232422	16525.888672	76.431610
554.859009	1029.018433	20851.572266	16287.304688	76.974365
555.204285	1033.922363	20454.423828	16030.960938	77.222717
555.549500	1033.402222	20104.310547	15874.776367	77.822060
555.894714	1013.266113	19831.171875	15686.640625	77.975601
556.239990	1006.430359	19525.640625	15524.140625	78.392700
556.585022	1020.845032	19316.849609	15423.684570	78.721230
556.930115	1039.272095	19064.814453	15329.617188	79.278305
557.275146	1033.922363	18881.064453	15250.485352	79.657356
557.620178	1012.671814	18663.060547	15157.903320	80.141190
557.965149	1001.674988	18505.685547	15090.140625	80.487076
558.310059	997.216797	18362.951172	15033.372070	80.826729
558.654968	996.845215	18247.187500	14946.883789	80.868187
558.999756	994.467590	18181.207031	14924.593750	81.051590
559.344604	997.588318	18196.291016	14947.627930	81.111000
559.689331	990.678162	18159.882813	14990.872070	81.542473
560.033997	1001.600586	18125.480469	15037.385742	81.966156
560.378723	998.479980	18092.638672	15107.972656	82.539848
560.723389	1005.018555	18144.873047	15175.958008	82.678291
561.067932	984.139587	18172.291016	15201.666992	82.717018
561.412476	989.415039	18185.664063	15163.700195	82.426605
561.757019	996.102295	18163.892578	15111.835938	82.222191
562.101501	999.297302	18143.533203	15049.347656	81.952034
562.445862	1005.613037	18058.087891	14992.059570	82.020042
562.790222	995.507874	17994.855469	14896.729492	81.775032
563.134644	1007.916321	18004.664063	14878.821289	81.609169
563.478943	1012.746094	18010.683594	14883.281250	81.601280
563.823181	1016.684082	18038.472656	15015.242188	82.239059
564.167358	1006.801819	18090.335938	15188.739258	83.015251
564.511536	992.758606	18241.021484	15495.536133	84.082535
564.855774	986.740173	18426.853516	15804.190430	84.961891
565.199768	992.461426	18658.974609	16116.855469	85.610519
565.543823	988.374756	18924.085938	16331.367188	85.544380
565.887817	996.325195	19198.931641	16469.347656	85.004440
566.231812	1004.349915	19353.925781	16483.912109	84.359238
566.575745	1006.430420	19409.060547	16363.985352	83.453041
566.919617	1007.990723	19386.843750	16224.296875	82.792473
567.263428	997.439758	19299.462891	15996.856445	81.954964
567.607239	992.535706	19210.744141	15792.597656	81.237740
567.950989	995.062012	19075.439453	15581.131836	80.673485
568.294678	996.696716	18965.248047	15483.942383	80.625565
568.638367	997.365417	18788.556641	15417.293945	81.050941
568.981995	981.761719	18663.058594	15371.524414	81.384094
569.325623	986.294250	18554.056641	15376.206055	81.910904
569.669128	1001.229187	18529.833984	15468.265625	82.533867
570.012573	1004.498474	18531.542969	15620.289063	83.389931
570.356140	1008.436523	18645.375000	15860.436523	84.209633
570.699524	1002.863770	18768.347656	16083.864258	84.889328
571.042908	1007.024719	18982.564453	16357.745117	85.397835
571.386230	988.449036	19157.396484	16472.765625	85.224068
571.729492	1002.417969	19369.306641	16633.630859	85.105392
572.072815	1003.235291	19469.466797	16637.865234	84.666054
572.416016	1010.442627	19502.085938	16584.888672	84.224243
572.759094	997.365417	19477.046875	16404.927734	83.375694
573.102234	987.929016	19416.490234	16231.354492	82.716316
573.445374	989.266418	19342.187500	16115.961914	82.421181
573.788391	988.374817	19229.617188	16003.170898	82.312355
574.131409	1003.235352	19150.039063	15937.859375	82.298920
574.474365	994.244629	19111.697266	15859.320313	82.048378
574.817261	992.833008	19085.841797	15815.557617	81.925156
575.160156	989.192139	19095.353516	15699.867188	81.246788
575.502930	995.507874	19061.250000	15540.264648	80.510155
575.845703	987.483215	19081.681641	15321.221680	79.217316
576.188477	1011.037170	19040.146484	15109.754883	78.199745
576.531250	1008.882324	18970.970703	14873.324219	77.187248
576.873901	1013.043396	18777.337891	14572.323242	76.328842
577.216431	975.074646	18608.669922	14278.752930	75.445068
577.559082	970.170715	18445.353516	14007.028320	74.602119
577.901611	967.570068	18308.486328	13795.860352	73.977005
578.244080	970.542175	18119.759766	13550.809570	73.357681
578.586487	989.935120	17943.810547	13394.848633	73.168602
578.928955	1552.109497	18344.080078	13862.731445	73.312553
579.271301	1586.140259	18108.539063	13726.460938	73.477951
579.613647	1572.839966	17814.298828	13523.540039	73.581444
579.955872	1017.650085	16972.748047	12770.184570	73.660057
580.298157	993.873230	16680.960938	12688.898438	74.551918
580.640320	989.786560	16463.181641	12601.073242	75.040329
580.982483	981.464661	16236.483398	12496.379883	75.482796
581.324524	989.712219	16131.417969	12380.022461	75.224747
581.666626	989.043518	16020.409180	12268.864258	75.041885
582.008728	984.956848	15948.334961	12185.719727	74.854507
582.350647	972.102478	15846.391602	12125.535156	74.984642
582.692566	985.997131	15834.653320	12116.098633	74.956963
583.034424	993.501648	15775.656250	12088.309570	75.055420
583.376343	990.306641	15721.788086	12011.777344	74.815765
583.718201	980.944519	15629.428711	11969.127930	75.012428
584.059937	974.554504	15603.125977	11917.710938	74.806732
584.401611	967.421387	15564.339844	11908.497070	74.954704
584.743347	965.489563	15535.139648	11877.958008	74.898628
585.085022	966.009766	15468.637695	11841.328125	74.988602
585.426514	977.749573	15502.743164	11844.968750	74.817375
585.768127	974.851746	15551.708008	11838.727539	74.528252
586.109619	987.557434	15652.239258	11840.956055	74.010460
586.451172	980.870300	15746.456055	11855.296875	73.647110
586.792542	984.288147	15829.897461	11896.088867	73.501869
587.133850	979.904297	15853.895508	11959.691406	73.818703
587.475220	983.173523	15850.034180	12003.159180	74.124496
587.816589	977.377930	15796.238281	12032.433594	74.601257
588.157776	984.065247	15772.909180	12121.745117	75.311363
588.498962	987.706055	15706.333008	12173.609375	75.998283
588.840210	981.984680	15631.956055	12208.308594	76.630348
589.181335	991.718323	15565.157227	12231.120117	77.122505
589.522400	996.622375	15504.898438	12245.534180	77.534447
589.863403	1001.377747	15425.914063	12209.274414	77.700218
590.204407	998.628601	15317.209961	12118.847656	77.662857
590.545410	985.179749	15284.145508	12001.598633	77.043465
590.886353	998.628601	15265.570313	11930.862305	76.626328
591.227112	974.777344	15250.485352	11846.825195	76.157677
591.567932	976.932129	15224.480469	11819.184570	76.099068
591.908752	963.780579	15252.565430	11770.887695	75.633492
592.249512	974.480225	15396.711914	11835.680664	75.308739
592.590149	962.740295	15415.362305	11841.104492	75.269142
592.930786	976.932129	15464.921875	11910.131836	75.463875
593.271423	959.248108	15421.604492	11923.432617	75.811882
593.612000	969.873535	15437.504883	12005.239258	76.276245
593.952576	956.647644	15455.262695	12110.971680	76.933723
594.292969	965.861084	15469.456055	12230.747070	77.669609
594.633484	966.083984	15500.141602	12385.372070	78.569168
594.973877	962.814636	15464.773438	12532.194336	79.778046
595.314209	971.805237	15519.682617	12718.471680	80.744881
595.654480	973.217041	15638.270508	12960.846680	81.742828
595.994812	978.046692	15822.690430	13256.348633	82.711998
596.335022	969.130371	15968.472656	13461.051758	83.283134
596.675171	971.136536	16053.624023	13522.574219	83.218620
597.015320	968.090149	16117.300781	13438.613281	82.317970
597.355408	977.452332	16067.293945	13198.614258	80.989334
597.695496	970.839355	16009.413086	12866.481445	79.100868
598.035461	971.582336	15799.953125	12448.530273	77.398575
598.375366	965.341003	15598.073242	12079.319336	75.952858
598.715271	969.799133	15335.338867	11787.161133	75.300774
599.055176	988.820618	15108.492188	11541.070313	74.734383
599.395081	976.337708	14846.796875	11337.257813	74.697746
599.734802	971.953857	14569.425781	11148.379883	74.840576
600.074524	960.511230	14315.757813	11048.293945	75.534233
600.414246	967.867188	14090.395508	10976.666992	76.271889
600.753906	983.768066	13913.780273	10993.534180	77.414978
601.093506	967.272766	13710.413086	11002.523438	78.750221
601.433044	971.285156	13644.284180	11117.395508	80.060844
601.772583	954.789978	13612.333008	11245.196289	81.298607
602.112122	981.910461	13732.257813	11504.364258	82.526802
602.451538	978.566833	13855.601563	11780.027344	83.881584
602.790894	979.904297	14011.338867	12055.171875	84.988861
603.130310	961.848633	14240.338867	12324.073242	85.568649
603.469604	971.953918	14513.252930	12645.803711	86.209229
603.808838	968.387390	14832.754883	12984.624023	86.669922
604.148010	959.173828	15115.476563	13241.488281	86.762161
604.487305	959.842529	15304.206055	13322.551758	86.185135
604.826416	971.656738	15410.905273	13247.135742	85.014664
605.165527	981.390381	15399.463867	13019.694336	83.494537
605.504456	963.334778	15340.836914	12735.635742	81.880013
605.843445	952.189270	15216.082031	12367.539063	80.029694
606.182434	951.743591	15014.200195	12015.418945	78.675270
606.521423	961.700134	14788.766602	11671.026367	77.451904
606.860229	966.826965	14570.390625	11404.874023	76.730240
607.199036	968.758850	14418.442383	11261.320313	76.526421
607.537903	966.752686	14381.440430	11245.938477	76.626350
607.876648	974.628845	14462.059570	11385.108398	77.186531
608.215271	978.566895	14731.109375	11605.563477	77.272957
608.553955	977.600891	15195.128906	11899.209961	76.817917
608.892578	980.944519	16049.312500	12236.246094	74.694893
609.231140	978.641113	17279.619141	12558.570313	71.038246
609.569641	977.972412	18917.919922	12859.051758	66.226944
609.908081	968.535950	20817.394531	13156.262695	61.402653
610.246521	977.675232	22792.806641	13411.567383	56.996643
610.584961	982.579102	24579.337891	13545.385742	53.239544
610.923340	985.848450	25870.201172	13545.237305	50.471027
611.261597	993.873230	26535.507813	13393.363281	48.546188
611.599854	1001.303528	26681.068359	13186.058594	47.448856
611.938110	1001.897888	26461.576172	12905.714844	46.755569
612.276245	989.786621	25929.791016	12587.920898	46.504143
612.614319	979.458496	25026.937500	12204.964844	46.680595
612.952393	972.028137	23804.361328	11813.166992	47.481518
613.290466	966.901306	22530.515625	11445.293945	48.592930
613.628479	970.987976	21278.070313	11108.405273	49.920601
613.966370	981.167419	20053.189453	10839.058594	51.687714
614.304260	976.932129	18841.982422	10544.374023	53.553955
614.642151	968.684570	17635.380859	10287.731445	55.914185
614.979980	955.607239	16632.515625	9997.654297	57.677486
615.317749	956.498840	15741.700195	9848.677734	60.142426
615.655396	972.399658	15049.421875	9715.972656	62.112377
615.993164	975.223145	14440.066406	9634.239258	64.308327
616.330811	989.935059	13949.221680	9535.639648	65.942711
616.668396	971.730957	13443.368164	9422.401367	67.759109
617.005859	983.545105	13019.397461	9355.827148	69.561188
617.343445	982.430664	12626.929688	9286.130859	71.310066
617.680908	978.492615	12341.534180	9255.815430	72.844254
618.018311	984.139587	12115.132813	9210.491211	73.904922
618.355652	971.508118	11909.612305	9150.603516	74.776169
618.692993	995.507813	11746.442383	9116.573242	75.538231
619.030273	974.703125	11598.358398	9060.473633	76.111000
619.367554	968.610168	11501.764648	9011.359375	76.356506
619.704712	953.526855	11434.222656	8993.229492	76.709633
620.041870	961.997375	11362.668945	8973.167969	77.025505
620.379028	954.715637	11294.385742	8950.803711	77.334076
620.716064	938.220520	11232.416992	8897.231445	77.315514
621.053040	926.777832	11188.429688	8859.484375	77.304375
621.389954	932.499207	11159.004883	8826.643555	77.192978
621.726929	932.127625	11129.359375	8818.172852	77.335159
622.063843	929.824219	11127.575195	8808.586914	77.259804
622.400635	923.434265	11133.742188	8818.172852	77.321266
622.737427	934.653870	11157.222656	8822.409180	77.160210
623.074219	937.403076	11165.172852	8840.389648	77.269890
623.410889	953.823975	11173.122070	8895.967773	77.717117
623.747559	960.808594	11226.026367	8959.496094	77.920288
624.084167	970.839417	11287.028320	9040.264648	78.220993
624.420715	967.570068	11379.461914	9117.092773	78.271294
624.757324	973.217102	11480.440430	9217.847656	78.466309
625.093750	967.198547	11590.704102	9345.053711	78.861496
625.430176	968.387390	11712.040039	9484.668945	79.268028
625.766602	979.086975	11830.554688	9625.545898	79.680084
626.102905	975.297546	11971.284180	9721.098633	79.536301
626.439209	965.861084	12081.696289	9790.943359	79.391983
626.775452	941.266907	12166.401367	9849.866211	79.362961
627.111694	944.461914	12189.659180	9840.207031	79.107063
627.447876	941.118347	12178.215820	9788.195313	78.730980
627.783997	942.455750	12126.649414	9640.555664	77.771362
628.120056	943.644531	12113.870117	9548.047852	77.029808
628.456055	957.836426	12059.554688	9404.198242	76.081566
628.792053	947.879883	12006.651367	9269.784180	75.251617
629.128052	938.369141	11869.414063	9128.089844	74.921661
629.463928	942.158508	11820.894531	9045.093750	74.484154
629.799744	946.245117	11797.934570	8991.149414	74.135040
630.135559	954.195496	11839.618164	8941.811523	73.379013
630.471375	933.390686	11812.870117	8858.890625	72.848152
630.807068	958.802246	11742.429688	8801.825195	72.730843
631.142700	971.953918	11610.914063	8767.497070	73.273544
631.478333	981.315979	11457.999023	8681.305664	73.496452
631.813965	954.121277	11261.468750	8609.010742	74.266335
632.149475	932.053284	11024.739258	8478.980469	74.776207
632.484924	931.607483	10780.582031	8458.027344	76.418312
632.820435	939.706482	10557.971680	8416.790039	77.738373
633.155884	942.158447	10360.252930	8402.820313	79.216255
633.491150	977.526550	10265.960938	8438.262695	80.322861
633.826477	978.343933	10105.541992	8428.827148	81.629471
634.161804	1000.486145	9997.208008	8406.312500	82.316940
634.497009	964.746582	9793.619141	8255.106445	82.574074
634.832153	948.325684	9620.790039	8129.386719	82.803001
635.167297	923.954346	9476.198242	8025.585938	83.038223
635.502380	912.437439	9335.245117	7947.791016	83.527412
635.837463	926.629211	9248.459961	7850.825684	83.205200
636.172424	933.836609	9125.786133	7746.355469	83.161140
636.507324	951.297791	9036.102539	7671.829590	83.125465
636.842224	954.418457	8949.317383	7628.882813	83.484039
637.177124	959.471008	8845.590820	7573.527832	83.869598
637.511963	941.415344	8753.975586	7501.008301	83.962143
637.846741	934.579590	8667.262695	7420.315918	83.874329
638.181396	915.260925	8568.143555	7324.613770	83.750832
638.516113	933.613708	8496.145508	7279.883301	83.917259
638.850769	930.641602	8404.530273	7244.960938	84.485062
639.185303	938.666199	8363.514648	7223.264160	84.642776
639.519836	933.836609	8281.484375	7174.893066	84.939514
639.854370	926.703552	8208.073242	7105.197266	84.853455
640.188843	932.350525	8129.089355	7053.259766	85.051155
640.523254	935.322693	8083.467285	7000.356934	84.847672
640.857605	958.059265	8049.140137	6971.973145	84.809555
641.191895	948.994385	8002.180176	6914.239746	84.575188
641.526184	935.842773	7914.651855	6876.270996	85.120941
641.860413	922.319641	7869.921387	6841.051270	85.191002
642.194580	922.914063	7826.008301	6840.829590	85.728447
642.528748	925.811951	7801.710938	6838.451172	85.990784
642.862793	942.604309	7762.405762	6818.909668	86.165344
643.196838	943.050110	7743.681152	6771.058105	85.698044
643.530823	944.164612	7721.910156	6730.637207	85.374596
643.864746	929.304199	7692.932129	6710.947266	85.481392
644.198669	927.892395	7639.806152	6705.969238	86.086876
644.532532	931.979065	7621.007324	6685.610840	86.015961
644.866333	931.013184	7597.230469	6668.817871	86.072876
645.200073	943.718933	7591.138184	6686.650391	86.393402
645.533813	935.619934	7547.076172	6701.139160	87.204979
645.867554	925.737610	7541.429199	6702.179688	87.314255
646.201172	920.090637	7535.856934	6685.610840	87.148186
646.534729	960.288391	7592.475098	6732.568848	87.034348
646.868225	966.381287	7595.595703	6749.956543	87.243752
647.201782	953.749756	7569.886719	6750.253906	87.611610
647.535217	913.031799	7560.004395	6703.962402	87.121323
647.868591	926.926453	7578.134277	6719.863281	87.096016
648.201965	935.768494	7617.068848	6721.275391	86.592529
648.535278	933.019287	7607.558594	6703.369141	86.453156
648.868591	915.186584	7614.914551	6700.173340	86.346588
649.201782	912.214539	7643.074707	6688.062500	85.811440
649.534912	918.381653	7685.799316	6704.333984	85.497192
649.868103	907.979248	7701.031250	6664.880371	84.746910
650.201172	909.539551	7737.662109	6702.626465	84.841576
650.534180	910.356934	7754.306152	6693.189453	84.495552
650.867188	928.189636	7767.605957	6705.151855	84.465721
651.200134	922.765442	7749.550781	6681.152344	84.349907
651.533020	916.449707	7699.099121	6656.334473	84.625999
651.865845	936.288574	7672.350098	6638.427734	84.650940
652.198608	955.904480	7636.610840	6618.068848	84.753975
652.531433	959.991150	7598.567871	6583.814941	84.714302
652.864136	938.220459	7544.326660	6547.704590	84.913620
653.196777	3431.300049	10204.067383	9199.271484	85.164177
653.529358	3540.822266	10197.677734	9244.075195	85.674881
653.861938	3539.781982	10124.489258	9201.351563	85.980583
654.194519	1035.259888	7328.254395	6432.906250	85.772301
654.526978	931.904785	7246.298340	6331.408691	85.511047
654.859375	927.743713	7184.403809	6276.127441	85.483047
655.191833	931.607422	7149.927734	6263.347656	85.742455
655.524170	923.582764	7074.511230	6244.697754	86.509132
655.856445	935.322693	7059.130371	6263.794434	87.012398
656.188660	1014.083496	7141.532715	6385.576172	87.662788
656.520874	1027.458008	7161.370605	6413.588379	87.809052
656.853088	1017.650085	7181.135254	6461.959473	88.331673
657.185181	935.768555	7120.058594	6425.848145	88.774612
657.517212	921.948181	7194.212891	6538.193848	89.540955
657.849243	931.533203	7293.332520	6688.953613	90.499878
658.181274	937.997559	7403.968750	6861.484863	91.610168
658.513123	933.242188	7488.302246	6993.001465	92.443993
658.844971	919.570496	7596.784668	7108.393066	92.685699
659.176819	914.072021	7698.728027	7193.543457	92.554016
659.508667	912.883118	7780.683594	7259.673340	92.413727
659.840393	922.022461	7832.472656	7240.056641	91.427246
660.172058	922.468262	7839.382813	7183.363770	90.515724
660.503662	937.626038	7814.193848	7044.937988	88.813377
660.835266	941.415527	7738.033691	6908.443848	87.794083
661.166931	937.626038	7648.945313	6742.748535	86.497490
661.498413	932.796387	7548.190918	6634.638184	86.190506
661.829773	932.945007	7428.712402	6499.927734	85.701698
662.161194	944.536194	7315.548828	6377.699707	85.279434
662.492615	934.728271	7178.014160	6217.652344	84.617676
662.823975	949.068665	7078.076660	6123.584473	84.426643
663.155212	941.044006	6940.171387	6041.851563	85.025826
663.486450	940.300964	6841.126465	5985.901855	85.506699
663.817627	933.465088	6719.863281	5919.251953	86.163910
664.148743	932.870667	6631.443848	5846.509766	86.225777
664.479858	938.220459	6552.682129	5781.420410	86.262947
664.810913	915.855286	6479.271484	5711.427246	86.198334
665.141907	907.384827	6411.285156	5678.214355	86.680885
665.472778	899.360107	6342.777344	5661.644531	87.487038
665.803711	937.403137	6333.043457	5714.696777	88.539886
666.134583	941.861328	6303.396973	5729.705566	89.299866
666.465454	960.288391	6309.192871	5749.322266	89.532982
666.796143	922.765442	6251.979004	5682.820801	89.320030
667.126831	931.458984	6244.920410	5663.650391	89.060425
667.457458	925.811829	6213.713379	5649.310059	89.326515
667.788147	935.619812	6194.469238	5653.173340	89.706955
668.118774	939.409241	6202.716797	5669.223145	89.863907
668.449219	943.718811	6196.178223	5663.650391	89.861359
668.779663	953.749756	6213.416504	5702.064941	90.277870
669.110107	934.133850	6170.989746	5692.108887	90.855568
669.440552	924.251648	6182.209473	5689.210938	90.623764
669.770874	895.050598	6144.611816	5622.486816	90.053932
670.101135	903.669678	6129.231934	5583.552246	89.557495
670.431396	902.629395	6078.111328	5536.667480	89.538292
670.761597	918.010071	6032.191895	5511.107422	89.810989
671.091797	920.387695	6006.037109	5468.234375	89.425095
671.421875	914.369324	5950.384766	5416.891113	89.406433
671.751892	916.301208	5940.279297	5402.476563	89.295280
672.081909	911.545715	5913.232910	5374.612793	89.231232
672.411865	919.347473	5902.310547	5381.003418	89.538208
672.741821	910.579834	5853.865234	5339.245605	89.589531
673.071716	911.099915	5807.723145	5344.148926	90.532776
673.401550	913.477722	5772.652344	5317.845703	90.640251
673.731262	915.632385	5742.856934	5290.947754	90.638321
674.060974	907.904968	5683.266113	5231.877441	90.547546
674.390625	911.991638	5650.127441	5204.905762	90.603439
674.720276	915.186707	5625.533203	5180.905762	90.560623
675.049927	924.102966	5596.183594	5168.720215	90.850685
675.379395	917.489990	5563.713379	5143.382813	90.953278
675.708923	918.455994	5540.233887	5122.206543	90.955269
676.038330	919.347656	5554.425781	5108.015137	90.368866
676.367737	921.725281	5543.502441	5089.365234	90.173973
676.697083	938.369080	5553.459473	5108.015137	90.348091
677.026428	937.700256	5555.094238	5132.609375	90.850143
677.355652	920.907898	5559.181152	5152.150879	91.224533
677.684875	933.465149	5588.232910	5230.763184	92.320351
678.013977	921.650940	5569.509277	5271.257813	93.583038
678.343079	934.505371	5603.985840	5327.802246	94.085350
678.672180	906.790344	5590.759277	5298.601074	93.762596
679.001221	903.075195	5659.786621	5341.474121	93.308136
679.330139	910.728516	5711.575684	5423.875488	94.007301
679.659058	907.607727	5788.181641	5499.292969	94.080849
679.987976	909.465332	5854.683105	5576.642090	94.377579
680.316772	903.149597	5897.257813	5606.734375	94.182678
680.645630	897.948425	5912.416016	5627.687988	94.321869
680.974304	903.223877	5921.183594	5599.081543	93.581009
681.302979	894.679016	5907.660156	5557.992188	93.024750
681.631653	899.583008	5908.552246	5512.964844	92.102417
681.960266	907.310547	5892.874512	5459.689453	91.311211
682.288757	914.889465	5876.082520	5405.448730	90.513695
682.617249	917.118469	5831.128906	5332.409668	89.851074
682.945679	917.341370	5760.318359	5261.227051	89.694534
683.274109	935.471191	5714.251465	5187.815918	88.983894
683.602478	944.907715	5633.261230	5131.791992	89.303940
683.930725	936.808777	5558.809082	5059.718262	89.201843
684.259033	909.985535	5455.231445	4988.312988	89.727318
684.587280	903.521057	5373.795410	4926.790527	90.000504
684.915344	919.719055	5328.842285	4875.150391	89.710159
685.243469	935.619873	5285.523926	4853.453613	90.067123
685.571533	937.105896	5269.548340	4839.855957	90.081985
685.899536	939.186340	5245.697266	4856.351563	90.959145
686.227539	925.811829	5232.917480	4838.741699	90.848251
686.555420	918.307312	5244.062988	4838.146973	90.616295
686.883301	908.722229	5256.472168	4840.599121	90.434753
687.211121	907.459045	5282.403320	4859.918457	90.343079
687.538940	917.935791	5310.117676	4888.895996	90.409744
687.866638	905.898743	5316.508301	4888.004395	90.284706
688.194336	910.431213	5298.749512	4879.756348	90.452080
688.521973	890.072266	5254.242188	4839.335938	90.492897
688.849609	894.827637	5199.480957	4785.095215	90.373543
689.177063	905.230042	5163.519043	4752.030762	90.336769
689.504578	915.632385	5099.395996	4690.879395	90.235664
689.832031	915.409485	5038.244629	4645.257324	90.468040
690.159485	901.960693	4965.353516	4557.431641	89.961052
690.486816	899.508728	4909.106445	4506.385742	89.956085
690.814087	932.201904	4875.596191	4483.574707	90.058777
691.141296	947.656921	4816.673828	4468.342773	90.996910
691.468506	938.368958	4734.346191	4425.098145	91.853271
691.795715	900.251770	4645.777344	4369.891113	92.634247
692.122803	898.096985	4605.059570	4330.361816	92.589684
692.449829	909.688293	4589.976563	4310.523438	92.406761
692.776855	910.654236	4581.431641	4265.347168	91.389168
693.103821	890.072266	4555.500000	4223.291992	90.936722
693.430664	873.502747	4542.794434	4192.531250	90.454201
693.757568	879.298340	4516.416504	4177.818848	90.690498
694.084351	887.545959	4492.416504	4185.175293	91.477051
694.411133	906.567566	4461.209473	4183.094727	92.176010
694.737854	903.818298	4436.318359	4177.596191	92.675949
695.064575	901.514893	4428.070801	4168.233887	92.631989
695.391174	905.527283	4423.761230	4173.806641	92.895454
695.717773	908.499451	4408.751953	4182.128418	93.525505
696.044250	910.431213	4386.460938	4197.063965	94.551346
696.370789	904.561279	4399.166504	4232.134277	95.220284
696.697205	901.366394	4435.129395	4281.099609	95.641197
697.023621	905.007141	4512.850098	4372.789551	96.117889
697.349915	918.901794	4617.468262	4495.017578	96.689240
697.676208	914.889404	4723.943848	4652.613770	98.127357
698.002380	911.025696	4848.029785	4800.995605	98.805328
698.328674	895.422058	4975.904785	4949.155762	99.344467
698.654724	897.056824	5122.280762	5085.649902	99.133041
698.980896	906.121765	5234.998535	5171.989746	98.544456
699.306946	916.152527	5282.552246	5198.069824	98.065170
699.632935	925.960449	5274.750488	5133.872559	96.760529
699.958862	921.502258	5223.778320	5019.966309	95.262695
700.284729	910.134033	5136.918457	4876.413574	93.836815
700.610596	903.892578	5051.247559	4742.371582	92.552460
700.936340	897.651184	4931.174316	4612.118652	92.089905
701.262146	891.261169	4787.770020	4450.510254	91.344566
701.587830	893.341614	4661.158691	4321.148926	90.975945
701.913513	903.075256	4539.450684	4192.902832	90.469963
702.239075	908.573730	4435.872559	4103.145020	90.567070
702.564697	909.316711	4318.696777	3997.486328	90.578629
702.890137	894.604736	4215.564453	3912.781250	90.882660
703.215698	890.295227	4136.061035	3845.016846	91.033112
703.541016	883.682312	4070.526123	3788.250000	91.142456
703.866455	889.403564	4036.718018	3755.556641	91.066628
704.191711	903.000977	4024.829834	3749.092529	91.167442
704.517029	906.493164	4009.894775	3726.504150	90.868385
704.842163	920.759277	3993.622803	3710.157471	90.775208
705.167419	914.889404	3995.554688	3674.715576	89.585396
705.492493	914.889404	4013.907471	3693.291016	89.654259
705.817566	901.366394	4029.288086	3686.232422	89.032471
706.142578	905.973083	4065.250732	3691.359375	88.165291
706.467590	915.558105	4106.711426	3687.792236	86.872482
706.792480	919.570496	4155.603027	3700.498291	85.936333
707.117371	912.808899	4163.701660	3721.674805	86.402908
707.442200	928.932617	4205.905762	3748.200439	86.032677
707.766907	932.424805	4227.453613	3750.057861	85.511635
708.091675	932.573425	4260.592285	3750.503906	84.672913
708.416321	908.796631	4240.530762	3735.123779	84.830513
708.741028	905.452942	4252.790527	3762.244141	85.345177
709.065552	913.403381	4254.722656	3770.045654	85.494446
709.390137	912.065918	4248.035156	3768.410889	85.622643
709.714600	912.214539	4246.548828	3773.909180	85.825066
710.039063	914.369324	4231.911133	3792.039063	86.741020
710.363403	937.328857	4234.140625	3833.277344	87.840881
710.687744	936.437256	4231.613770	3863.815674	88.838287
711.012085	921.948242	4257.620117	3902.601807	89.356918
711.336304	911.620178	4299.452637	3938.787109	89.354095
711.660461	906.567566	4315.204590	3945.697266	89.159676
711.984619	919.421875	4327.019043	3933.214600	88.443336
712.308716	913.477722	4317.507813	3896.880615	87.643257
712.632751	926.777832	4291.873535	3859.952148	87.164665
712.956726	942.752930	4250.933105	3837.735352	87.509819
713.280701	951.223389	4189.410156	3805.264893	88.137024
713.604553	963.706238	4130.934082	3782.751221	89.006699
713.928467	957.910645	4055.591064	3723.606689	89.282806
714.252258	949.217102	3971.554688	3695.371826	90.861946
714.575989	931.979004	3896.360596	3679.990967	92.701019
714.899719	916.078308	3827.184814	3674.121094	94.742081
715.223267	910.134033	3788.027344	3657.179688	95.453354
715.546936	914.146423	3766.627686	3635.037354	95.386810
715.870422	911.917297	3759.271729	3627.458740	95.370689
716.193970	908.276550	3737.873047	3612.300781	95.562187
716.517395	905.304382	3715.210693	3608.288818	96.194824
716.840820	897.874023	3668.622803	3563.930420	96.221512
717.164124	904.338379	3626.567139	3511.992432	95.791145
717.487488	910.134033	3588.152344	3463.695557	95.352654
717.810730	920.759338	3555.310791	3416.884766	94.745743
718.133972	909.762512	3508.574463	3376.389893	94.913651
718.457092	895.496399	3445.194092	3308.625732	94.643745
718.780212	884.202393	3385.751953	3269.394287	95.348579
719.103210	886.357117	3351.869873	3217.902344	94.566345
719.426208	881.081726	3304.985107	3179.710205	94.831688
719.749207	911.843018	3307.139893	3166.856201	94.143372
720.072083	917.638672	3261.963623	3149.023438	95.182404
720.394958	923.805664	3235.289063	3132.305664	95.544708
720.717773	890.666687	3163.884033	3080.442383	96.329361
721.040527	888.957703	3147.983398	3052.058838	95.753723
721.363281	901.812073	3137.580811	3036.009521	95.456985
721.685913	930.121399	3126.138428	3037.124023	95.946556
722.008545	929.378418	3093.519531	3045.148438	97.764885
722.331055	915.409485	3054.659424	3022.337646	98.489105
722.653503	895.273499	3032.517334	2996.257080	98.303413
722.976013	899.731689	3029.098877	2967.873779	97.124725
723.298401	903.521179	3022.857666	2951.452881	96.630798
723.620789	903.966980	3005.173828	2943.874023	97.082642
723.943115	908.276550	3001.607178	2952.938721	97.675072
724.265381	908.573669	3000.269531	2962.003906	98.170593
724.587585	909.613953	3004.802002	2973.074951	98.485718
724.909790	908.945129	3002.275635	2963.564209	98.150726
725.231873	905.081482	3003.390381	2958.139893	97.843475
725.553894	927.595215	3020.405518	2966.907471	97.443726
725.875916	1492.964478	3609.923096	3841.970703	110.961380
726.197937	1521.422363	3642.764893	3887.072510	111.516647
726.519775	1499.874634	3645.662842	3888.410156	111.312744
726.841675	929.675720	3064.318359	3035.785889	98.663361
727.163513	901.291992	3044.702881	3024.714844	99.067467
727.485291	897.131042	3058.076904	3045.965576	99.439537
727.806946	907.533447	3087.203857	3087.872314	100.030670
728.128662	907.087585	3113.952393	3118.410889	100.202026
728.450256	921.725281	3127.327148	3157.494141	101.367744
728.771790	908.722351	3122.125732	3141.370361	100.869461
729.093323	914.146301	3121.679932	3122.869141	100.053871
729.414795	902.852356	3119.154053	3089.730225	98.672394
729.736145	902.109375	3114.844482	3078.881836	98.374741
730.057495	895.347839	3108.974609	3062.832764	97.915558
730.378845	896.536621	3102.212891	3051.018311	97.678963
730.700134	903.223816	3115.438721	3051.909912	97.128273
731.021301	900.548889	3131.710938	3079.253174	97.648857
731.342468	903.743958	3146.868896	3107.116943	98.227829
731.663574	898.096985	3150.063721	3138.026611	99.465485
731.984680	918.901672	3153.927734	3153.259033	99.970078
732.305664	912.363098	3154.150391	3158.682861	100.202179
732.626648	919.198975	3162.769531	3149.395264	99.403885
732.947571	903.223877	3163.661377	3137.060791	98.823212
733.268433	908.053528	3168.639404	3126.212646	98.123199
733.589233	903.595398	3158.831299	3115.067383	98.059456
733.909973	922.022461	3149.246826	3115.661865	98.492073
734.230713	943.570313	3145.605469	3103.327393	98.080048
734.551331	941.861328	3098.720703	3066.696289	98.515228
734.871948	921.576660	3040.987305	2995.291016	97.843918
735.192505	900.400391	2976.789795	2936.963623	98.081947
735.513062	898.096985	2934.585938	2896.765625	98.142868
735.833435	906.716125	2901.372314	2867.044922	98.279030
736.153931	896.685242	2858.722656	2831.305420	98.602615
736.474304	903.446777	2839.924072	2803.813232	98.135231
736.794617	910.282654	2837.769531	2796.903076	97.879807
737.114807	935.025452	2838.512451	2808.048584	98.399574
737.434998	932.201965	2839.180908	2812.209229	98.585632
737.755188	935.248352	2839.255127	2823.354736	99.164902
738.075256	924.177246	2828.704834	2815.850342	99.325058
738.395325	918.976074	2834.649170	2829.596436	99.736244
738.715271	922.096741	2853.150391	2846.165771	99.638298
739.035278	919.124695	2867.787842	2858.351563	99.515755
739.355164	925.663269	2864.964600	2859.540039	99.720284
739.675049	913.106140	2843.268311	2836.952393	99.672775
739.994873	923.954407	2850.698242	2841.261719	99.510231
740.314636	923.731445	2837.249268	2820.457031	99.122444
740.634277	931.681824	2814.735596	2800.841064	99.262131
740.953979	911.768738	2776.469971	2757.596924	98.987877
741.273499	913.626221	2771.640381	2736.420654	98.104439
741.593140	916.746887	2761.163330	2709.894531	97.220322
741.912598	924.028625	2743.479492	2683.517334	96.704384
742.232117	921.130859	2710.711914	2654.539063	96.861115
742.551453	902.406494	2669.548096	2626.452393	97.561279
742.870850	922.022461	2652.755615	2607.133789	97.364014
743.190063	921.205078	2619.170898	2574.366455	97.361290
743.509338	922.171082	2604.904785	2549.549316	96.710388
743.828552	901.291992	2577.338623	2534.317139	97.433159
744.147705	906.344543	2566.713135	2523.543213	97.399979
744.466797	911.174316	2549.400635	2502.069580	97.110832
744.785828	929.378418	2558.985840	2491.147461	95.837135
745.104858	930.418701	2553.264404	2482.230957	95.622910
745.423706	930.121521	2541.673340	2485.574463	96.518951
745.742615	929.824219	2517.525146	2486.986328	98.076538
746.061401	948.622864	2521.834473	2495.308105	98.313873
746.380249	945.873596	2510.391846	2482.008057	98.185783
746.698975	938.369080	2487.357910	2463.952393	98.488983
747.017639	920.239075	2451.915527	2449.983887	99.873886
747.336304	915.558105	2446.565674	2454.962158	100.548431
747.654907	921.799500	2457.339600	2462.614990	100.343552
747.973389	931.087402	2481.042236	2462.466309	98.801521
748.291931	943.050232	2478.144287	2468.410645	99.365929
748.610352	933.985168	2469.896729	2462.169189	99.496880
748.928711	933.687988	2459.865967	2476.286865	101.075951
749.247070	947.433899	2478.812988	2481.859619	100.198944
749.565308	947.062439	2465.141357	2475.915283	100.709709
749.883545	938.591980	2455.556396	2464.323975	100.577972
750.201782	924.845947	2440.398682	2449.017822	100.568710
750.519836	917.415710	2441.661865	2448.348877	100.438713
750.837952	910.728516	2437.203613	2436.608887	99.961037
751.155884	905.675842	2429.550537	2433.265381	100.243774
751.473877	902.406555	2417.290283	2423.754883	100.426743
751.791809	892.747253	2399.680664	2417.216064	101.163651
752.109619	894.084656	2377.241211	2405.476318	101.903717
752.427490	899.954590	2377.612549	2403.990234	101.785103
752.745300	923.805847	2390.169678	2418.776367	101.950859
753.062988	914.592224	2396.559814	2406.144775	100.646774
753.380615	906.864563	2400.795166	2386.157471	99.020187
753.698303	907.533386	2397.971680	2376.275391	98.544304
754.015808	914.963684	2392.399170	2387.346680	99.658020
754.333374	923.062683	2379.693359	2391.358887	100.800858
754.650757	915.038025	2369.216553	2372.708740	100.240150
754.968262	916.449707	2365.055664	2367.804932	100.189789
755.285583	928.858215	2375.606445	2376.126709	100.035957
755.602905	926.777832	2370.331055	2381.625000	100.782372
755.920105	925.366028	2371.148438	2381.476563	100.714363
756.237305	908.722229	2357.996826	2378.355957	101.404778
756.554443	904.932800	2355.396240	2374.937988	101.347275
756.871582	904.412659	2353.018311	2382.293701	102.020935
757.188599	900.251770	2347.965820	2375.309326	101.888733
757.505615	907.013367	2351.904053	2393.587646	102.884895
757.822510	919.941895	2369.588135	2413.278076	103.013832
758.139465	926.034729	2390.689941	2439.878662	103.358383
758.456238	922.542542	2410.603027	2447.011475	102.446701
758.773010	907.161865	2426.281006	2451.098145	101.633652
759.089783	909.911133	2443.742188	2470.714111	101.758469
759.406433	903.372375	2438.020752	2479.110107	102.677444
759.723145	903.298157	2428.064209	2496.571289	104.492958
760.039673	904.709961	2424.125977	2502.589844	105.164078
760.356201	900.103210	2419.593750	2511.208984	106.029343
760.672668	899.731689	2433.191162	2510.391602	105.034393
760.989136	893.713074	2430.813477	2507.568115	104.993469
761.305481	900.697571	2440.101318	2502.515625	104.054443
761.621826	909.390930	2446.491455	2509.574463	104.104027
761.938049	939.706543	2475.172119	2543.307861	104.437462
762.254333	942.307129	2507.865479	2581.573486	104.708099
762.570496	935.099792	2543.307861	2623.926270	105.012932
762.886597	899.805969	2583.877197	2694.662354	106.578415
763.202637	892.672852	2685.671875	2834.500000	108.300514
763.518677	902.555176	2831.305420	3038.535400	110.744263
763.834656	908.796570	2990.164307	3222.583252	111.166649
764.150574	902.926697	3104.218994	3334.557617	110.463791
764.466370	905.304382	3149.617920	3348.526611	108.862785
764.782288	896.090820	3131.710938	3284.477539	106.833298
765.097961	914.815125	3096.863037	3171.537109	103.422203
765.413696	898.468506	3001.755615	3025.458252	101.126930
765.729309	906.344543	2908.951416	2880.419189	98.575249
766.044861	899.805969	2793.262451	2756.853760	98.077133
766.360474	897.948425	2708.259766	2660.780273	97.377274
766.675903	896.462402	2618.427979	2577.784424	97.639702
766.991394	894.381836	2530.676514	2533.053955	100.145294
767.306763	908.945129	2475.172119	2501.995361	101.712601
767.622131	902.406555	2435.048828	2472.868896	102.467636
767.937378	902.629456	2386.009033	2424.720459	102.609680
768.252625	902.629456	2354.653076	2386.900635	102.220871
768.567810	904.709961	2303.235596	2351.160889	103.426842
768.882996	913.106140	2289.564209	2330.579102	102.979744
769.197998	897.948425	2251.149658	2282.208008	102.295174
769.513062	915.781067	2244.016602	2267.793213	101.790092
769.828064	907.756348	2216.153076	2238.295166	101.692307
770.142944	914.146301	2187.695068	2237.849365	103.938156
770.457825	902.778076	2158.717041	2214.220947	104.419319
770.772705	898.765808	2132.933838	2194.307861	104.972908
771.087402	898.171387	2121.639893	2169.416748	103.905037
771.402100	897.428284	2104.253174	2153.961426	104.118927
771.716736	904.635742	2095.634033	2151.063721	104.654053
772.031372	902.332275	2076.760986	2139.101074	105.308121
772.345947	898.840088	2054.990234	2125.949463	106.137543
772.660461	894.530457	2043.473267	2106.556641	105.490547
772.974854	907.904968	2028.612915	2114.432617	107.657623
773.289246	920.610779	2033.145386	2117.330322	107.566940
773.603638	917.044189	2013.900879	2097.491455	107.620918
773.917908	908.796570	2003.721558	2068.364990	105.903900
774.232178	900.474670	1989.455444	2048.080322	105.383476
774.546265	904.487061	1995.176758	2050.829346	105.102516
774.860474	906.493164	1997.851563	2040.204102	103.880714
775.174561	907.310547	1989.826782	2036.043091	104.269341
775.488586	917.861511	1987.746460	2032.773804	104.208618
775.802551	919.496155	1982.470825	2022.965820	103.809601
776.116516	913.477722	1967.758911	2002.384155	103.284248
776.430359	900.028870	1956.242065	1986.557617	102.870224
776.744202	913.106140	1966.644531	1994.730835	102.665916
777.057922	913.403320	1963.746704	1993.467773	102.829651
777.371704	909.465332	1949.332031	1997.851563	104.665939
777.685303	883.905090	1918.199097	1979.201538	105.897980
777.998962	883.682312	1912.700562	1969.393677	105.509438
778.312500	885.539856	1908.390991	1959.957397	105.041435
778.626038	888.140442	1891.672852	1967.090332	107.515205
778.939453	909.539612	1903.189819	1996.736938	109.414482
779.252869	932.647766	1925.777954	2019.622192	109.449333
779.566223	931.384583	1930.161743	2004.315796	107.424477
779.879578	916.078186	1922.285645	1978.087036	105.545708
780.192749	902.183594	1889.741089	1961.443237	107.260551
780.505920	909.019470	1897.394165	1971.028198	107.450020
780.819031	902.109314	1884.688477	1965.827148	108.257721
781.132141	969.056091	1950.966431	2028.538696	107.900146
781.445190	969.204651	1938.706665	2028.315918	109.242821
781.758118	988.597717	1945.468140	2042.581909	110.149094
782.071045	926.480652	1874.509155	1964.563965	109.499161
782.383911	922.022461	1867.376099	1943.090454	108.009102
782.696838	899.211609	1844.416504	1914.632446	107.428650
783.009583	890.369446	1833.122437	1908.539673	107.999680
783.322266	885.911316	1816.404297	1895.239624	108.472427
783.634888	890.518066	1802.732544	1882.533813	108.748085
783.947510	886.877258	1790.621094	1868.639160	108.632767
784.260132	888.809265	1786.386108	1874.806274	109.850983
784.572571	892.375793	1786.014526	1874.360352	109.886078
784.885010	889.775146	1784.528442	1870.273804	109.583130
785.197449	899.211609	1794.113403	1867.673218	108.219879
785.509766	904.264160	1793.222046	1871.611328	108.818108
785.822083	910.059753	1789.729614	1869.530762	109.071716
786.134277	912.734680	1787.054688	1860.242798	108.370857
786.446533	909.836853	1788.540894	1850.434937	107.043785
786.758606	926.257751	1795.376587	1866.855835	108.224335
787.070740	918.678894	1784.900024	1884.614258	111.511406
787.382690	919.050354	1778.286987	1888.477905	112.824280
787.694641	899.508789	1771.079468	1880.973267	112.608711
788.006653	899.731628	1794.856445	1900.366333	111.787170
788.318481	905.007141	1829.481445	1939.672485	111.919312
788.630310	905.155762	1864.998413	1963.820923	110.295700
788.942017	897.874084	1876.515259	1972.142944	109.771469
789.253784	899.583008	1889.889648	1975.932251	108.688484
789.565430	904.709961	1883.425293	1975.635132	109.421516
789.877014	904.635559	1860.168579	1952.601196	109.673401
790.188538	904.338379	1839.512573	1934.917114	110.201790
790.500061	899.954529	1813.209351	1912.700684	110.894150
790.811462	905.229980	1809.345703	1893.604858	109.319511
791.122925	906.418762	1802.732788	1873.988892	107.949905
791.434204	899.434387	1786.980469	1848.280273	106.906662
791.745483	900.920471	1763.352173	1835.202759	108.331161
792.056702	881.081726	1727.909790	1817.370117	110.564163
792.367920	894.902039	1721.222534	1815.215454	111.374878
792.678955	889.849426	1703.612915	1803.029785	112.216927
792.990112	903.446777	1703.315552	1798.646118	111.918274
793.301086	888.809143	1694.102051	1786.088867	111.422775
793.612122	905.081360	1703.092651	1784.305542	110.176910
793.922974	904.338379	1697.668457	1762.088989	108.120270
794.233826	915.037903	1696.331055	1762.832031	108.511658
794.544556	905.898743	1695.810913	1759.191284	108.023727
794.855286	893.490234	1682.139282	1759.785645	109.845490
795.166016	902.555176	1694.993652	1774.497437	110.032799
795.476624	900.400391	1690.684082	1791.587280	112.767975
795.787292	910.951355	1709.036743	1816.032837	113.406601
796.097778	893.341553	1709.111328	1809.717163	112.332626
796.408264	888.140381	1723.600220	1827.847046	112.477776
796.718689	882.716309	1731.624878	1848.651855	113.785583
797.029053	891.706970	1744.999390	1869.307983	114.568115
797.339355	894.976257	1747.079956	1851.326660	112.234039
797.649658	899.062988	1747.377319	1826.509399	109.328156
797.959839	888.214661	1724.863403	1801.840942	109.200699
798.270020	890.072266	1726.721069	1795.228149	108.188271
798.580078	898.914307	1727.538208	1814.992676	110.554184
798.890137	898.394226	1719.662109	1806.076294	110.522049
799.200195	893.638855	1695.885376	1788.837891	111.586525
799.510071	885.093933	1672.628540	1759.711304	111.057640
799.820007	892.524231	1667.724609	1735.711548	108.770241
800.129883	888.066101	1659.922729	1725.383423	108.480942
800.439575	888.066162	1653.904297	1714.832520	107.955757
800.749329	891.112610	1648.554565	1722.114136	109.711578
801.058960	897.205383	1640.678345	1713.494995	109.794121
801.368591	891.186829	1628.715698	1703.464233	110.134995
801.678162	890.815369	1624.406250	1699.080200	110.179237
801.987671	900.549011	1621.136719	1697.742798	110.631058
802.297119	911.917297	1626.932495	1702.126587	110.516434
802.606506	895.124817	1608.059448	1688.380737	111.266289
802.915894	883.607971	1597.657227	1685.408691	112.289276
803.225159	874.245850	1578.784180	1662.597656	111.896225
803.534424	889.998047	1587.552124	1662.894897	110.800995
803.843628	891.186829	1588.666504	1658.659546	110.035133
804.152771	896.833801	1590.821289	1661.408691	110.171280
804.461792	901.366394	1587.997681	1689.198120	114.738686
804.770874	900.549011	1587.997681	1687.489136	114.472565
805.079773	893.564453	1590.598267	1698.634644	115.499443
805.388733	882.196106	1590.746948	1687.786499	113.695496
805.697571	876.623535	1587.997681	1701.829468	116.001678
806.006470	876.400574	1606.870483	1705.693237	113.528656
806.315125	870.976563	1621.359497	1709.928589	111.803185
806.623901	879.224121	1632.876465	1711.786133	110.470299
806.932495	873.131348	1619.873535	1699.749023	110.696526
807.241150	895.942200	1609.545532	1691.575806	111.495216
807.549622	907.607727	1610.362915	1679.687378	109.864670
807.858154	913.180420	1596.765503	1684.516968	112.836952
808.166565	899.360107	1579.378540	1668.690430	113.133743
808.474915	885.316895	1569.273438	1666.609985	114.231392
808.783264	901.217712	1576.555176	1664.678223	113.048744
809.091492	895.942200	1564.443848	1652.195313	113.126587
809.399719	897.353943	1555.230347	1630.796265	111.486343
809.707825	893.341614	1544.605103	1617.050171	111.123772
810.015930	890.889648	1553.744263	1613.632202	109.034851
810.323975	893.936035	1554.858887	1625.297729	110.657646
810.632080	885.539856	1542.747437	1606.053345	109.632561
810.939880	881.601807	1525.732056	1599.440430	111.443085
811.247864	880.561584	1514.883789	1587.552124	111.456062
811.555664	879.298401	1510.128418	1578.264160	110.800964
811.863464	887.620300	1505.373047	1571.279663	110.668770
812.171143	881.378845	1490.364136	1556.419067	110.846718
812.478882	889.849365	1486.574585	1567.416016	113.547516
812.786438	904.487061	1500.469116	1583.762573	113.975830
813.094055	906.493225	1507.527954	1592.307251	114.105560
813.401489	891.335510	1490.512573	1577.892578	114.583336
813.708984	875.509033	1476.172241	1549.954712	112.283501
814.016357	892.747253	1492.444336	1553.744263	110.221817
814.323730	911.768738	1497.422729	1569.496460	112.306541
814.630981	918.307312	1483.973999	1562.957642	113.962929
814.938232	913.626282	1461.831665	1548.245728	115.763084
815.245361	890.146667	1461.163086	1524.840454	111.151581
815.552490	883.682312	1464.878296	1540.964233	113.091270
815.859619	874.468750	1463.020508	1537.992065	112.738312
816.166565	878.703918	1464.358032	1549.954712	114.615570
816.473572	875.285950	1466.141235	1548.691528	113.971321
816.780457	875.508850	1467.701660	1562.809082	116.060211
817.087341	881.155945	1475.949219	1564.666626	114.915672
817.394043	882.790710	1488.283569	1571.502563	113.744011
817.700806	880.635925	1496.754028	1566.152832	111.263878
818.007507	887.248779	1494.896484	1578.412720	113.744186
818.314209	891.781250	1487.094727	1583.539673	116.200699
818.620667	890.963867	1483.156616	1594.387817	118.782936
818.927246	881.676025	1500.989380	1609.173950	117.468468
819.233704	883.830872	1537.694946	1633.471069	114.647713
819.540161	886.802979	1568.010376	1668.987793	114.823303
819.846497	897.205383	1611.700317	1720.851074	115.276634
820.152832	897.651184	1653.681274	1786.311890	117.543037
820.458984	889.329285	1711.860474	1846.199829	116.332436
820.765259	881.676086	1761.643188	1911.363281	117.014290
821.071350	890.295227	1842.187134	1998.817383	116.454636
821.377502	893.638855	1956.242065	2152.178223	118.439247
821.683472	904.561340	2170.679688	2452.361328	122.247650
821.989441	894.158936	2561.511963	3003.539063	126.510712
822.295349	900.846191	3196.874268	3847.692139	128.345383
822.601196	898.691406	3998.081055	4891.497070	128.825546
822.907043	897.205383	4748.390137	5827.859375	128.029526
823.212769	885.762695	5229.128418	6385.204590	126.617058
823.518494	892.970154	5336.867676	6391.520020	123.732597
823.824097	886.877258	5079.557129	5921.926270	120.091423
824.129700	891.112549	4620.812500	5181.277344	115.027084
824.435242	879.224060	4096.531738	4383.340820	108.914566
824.740723	880.635803	3641.427734	3723.829346	102.984711
825.046082	882.419128	3261.963867	3213.815674	97.976578
825.351501	873.948547	2948.332031	2865.113037	95.988251
825.656799	871.347961	2704.247559	2606.093506	94.644875
825.962036	867.558533	2503.853027	2459.940186	97.316322
826.267212	886.282776	2389.203857	2396.559814	100.489441
826.572449	902.703674	2330.950684	2426.132568	106.664246
826.877502	905.898743	2376.126709	2544.273682	111.436798
827.182495	910.877136	2501.103760	2765.770264	116.643318
827.487488	894.827637	2675.864014	3005.544922	118.510620
827.792419	897.502625	2816.890625	3198.955078	119.905533
828.097290	869.862000	2858.500000	3237.146484	119.040497
828.402100	876.326355	2803.441406	3139.810303	117.454529
828.706848	884.871155	2678.315918	2916.976318	113.307373
829.011597	891.335449	2495.010986	2620.731445	107.839523
829.316223	886.728516	2297.440186	2331.173584	102.391235
829.620789	889.254883	2119.782227	2114.209717	99.547142
829.925354	908.870850	1990.347046	1975.337891	98.612160
830.229797	924.771667	1882.682251	1876.812500	99.387238
830.534302	946.616638	1810.162720	1821.754028	101.342293
830.838562	929.229797	1712.900513	1748.194458	104.503670
831.142944	921.205078	1643.056030	1699.897583	107.874420
831.447144	889.180664	1560.803101	1621.433960	109.027519
831.751404	888.214661	1537.100464	1590.375610	108.210251
832.055542	894.679016	1525.657837	1578.709961	108.407906
832.359619	888.586243	1525.360718	1588.146362	109.859947
832.663635	895.793640	1545.570923	1617.273071	111.034882
832.967651	888.734863	1568.456055	1657.470703	113.095757
833.271545	879.521301	1623.068726	1734.374146	114.969513
833.575439	869.564758	1695.216675	1858.831055	119.816383
833.879211	862.951843	1821.382690	2032.476563	122.024940
834.183044	870.159180	1963.077759	2213.998047	122.958733
834.486694	869.193176	2096.674072	2348.411865	120.508492
834.790344	896.462402	2172.760010	2420.188232	119.386406
835.093933	899.583008	2162.209229	2376.498291	116.971695
835.397522	899.954590	2079.435791	2248.028809	114.293831
835.700928	877.886658	1961.220215	2065.318604	109.609077
836.004395	903.595398	1873.394531	1927.486938	105.577690
836.307739	904.115540	1786.683228	1810.014282	102.643539
836.611023	906.344543	1710.597290	1717.210327	100.822258
836.914307	877.292175	1618.833374	1625.595093	100.911850
837.217529	897.725525	1557.459473	1579.453003	103.333694
837.520691	891.186829	1499.503296	1525.583496	104.287277
837.823730	890.072266	1450.834839	1481.447754	105.459160
838.126831	870.233459	1418.215820	1429.955933	102.142426
838.429749	880.115723	1397.336914	1414.575195	103.332863
838.732727	886.059998	1378.389771	1393.250366	103.018425
839.035522	889.775146	1352.755249	1379.652954	105.809692
839.338379	882.716370	1331.653320	1368.804688	108.275406
839.641113	880.710205	1336.483032	1379.801392	109.504372
839.943848	889.106384	1357.510620	1413.980835	112.055870
840.246460	887.545959	1384.036743	1448.605835	113.005096
840.549072	886.654297	1411.603027	1477.138062	112.484085
840.851563	881.973206	1437.163208	1499.651733	111.255341
841.154053	884.945374	1447.788452	1504.258423	110.032990
841.456482	884.053772	1428.989868	1490.141113	111.221725
841.758850	887.843262	1393.993286	1443.255981	109.732826
842.061157	879.595642	1364.718140	1395.182129	106.279648
842.363403	874.988831	1339.529419	1352.309448	102.751114
842.665588	861.837219	1307.653442	1321.251099	103.050056
842.967712	864.958008	1288.111938	1304.161377	103.792816
843.269775	872.016785	1269.536255	1290.638306	105.308434
843.571777	866.889832	1240.558228	1275.480469	109.345787
843.873840	876.772156	1233.573853	1259.951294	107.392746
844.175659	883.013489	1232.161987	1249.474731	104.958565
844.477600	912.288757	1274.886108	1266.415649	97.663948
844.779297	907.979248	1259.802612	1256.458984	99.049629
845.081116	905.973083	1250.589233	1252.297974	100.495842
845.382751	897.279602	1218.193115	1230.155884	103.727722
845.684387	898.542786	1206.601929	1222.651245	105.209816
845.985962	894.158936	1178.738281	1206.081665	109.608353
846.287537	884.722473	1160.311279	1190.106567	110.811501
846.588989	886.802979	1153.698364	1186.242920	112.193748
846.890381	891.632629	1164.175171	1185.499878	107.824356
847.191711	896.165100	1170.342163	1179.407104	103.306236
847.493042	896.313721	1169.599121	1167.964478	99.401855
847.794250	905.601563	1178.589722	1182.453491	101.415359
848.095459	908.796570	1181.338989	1186.762939	101.990128
848.396606	904.041199	1178.961304	1189.883667	103.972923
848.697693	894.679016	1162.391724	1168.113037	102.137108
848.998657	887.546082	1142.627319	1159.865356	106.757858
849.299622	890.072327	1145.153442	1167.295776	108.680504
849.600464	888.734863	1141.809937	1171.382446	111.685272
849.901367	883.310791	1134.231079	1162.688965	111.341408
850.202087	883.236389	1117.364258	1147.085327	112.694374
850.502808	880.933105	1120.262085	1145.896606	110.710999
850.803467	887.546082	1127.395142	1148.348511	108.736061
851.104065	899.508728	1156.819214	1164.026489	102.801003
851.404663	903.298157	1150.057617	1164.323608	105.781334
851.705139	893.341614	1145.376465	1159.642578	105.660370
852.005615	879.892822	1125.166138	1143.741821	107.573463
852.306030	872.165344	1127.395142	1128.509766	100.436714
852.606384	886.059875	1140.100952	1130.441528	96.197693
852.906616	895.793640	1142.478638	1132.001953	95.753014
853.206909	895.867859	1129.029907	1135.271362	102.676872
853.506958	894.679016	1112.831909	1126.875000	106.437271
853.807129	885.539795	1103.989746	1121.451050	107.993271
854.107178	885.242615	1114.838013	1122.045410	103.139175
854.407166	885.688416	1122.416870	1136.831665	106.089172
854.707092	882.790588	1120.039185	1122.565552	101.064857
855.007019	886.802979	1114.317871	1120.485107	102.710693
855.306763	887.174500	1116.101196	1112.237427	98.312225
855.606567	880.858704	1109.859741	1116.621216	102.952599
855.906250	876.549133	1112.460327	1104.509888	96.629898
856.205933	874.097168	1103.023804	1104.212769	100.519363
856.505493	883.385010	1100.200439	1102.355347	100.993889
856.805054	899.583008	1100.051758	1121.376709	110.637543
857.104492	891.335449	1095.444946	1121.896729	112.959602
857.403931	882.493408	1103.766968	1127.840942	110.879730
857.703308	863.843323	1092.472900	1108.076294	106.824745
858.002563	869.416077	1095.370728	1103.915527	103.781647
858.301819	879.224060	1096.411011	1103.618286	103.318466
858.601013	885.985596	1100.794800	1111.197266	104.842651
858.900208	888.734863	1097.302612	1106.813354	104.560028
859.199219	884.573914	1095.965210	1101.835083	102.776779
859.498291	884.573914	1102.503784	1102.429565	99.965942
859.797302	892.301453	1113.277710	1116.621460	101.513168
860.096191	912.660339	1128.881226	1136.831665	103.677002
860.395020	912.957520	1126.875122	1130.515991	101.701996
860.693787	900.103210	1111.048584	1109.042480	99.048996
860.992554	868.004395	1088.237671	1084.299683	98.211899
861.291260	879.149841	1091.729858	1094.702026	101.398140
861.589844	881.081726	1091.655640	1092.621460	100.458664
861.888428	901.589172	1099.605957	1101.686523	101.050705
862.186890	904.115479	1104.807129	1107.556396	101.369896
862.485413	909.539734	1110.454102	1115.432495	102.477867
862.783813	905.230042	1095.965210	1111.717285	108.258614
863.082153	892.895813	1080.658813	1104.509888	112.702759
863.380371	886.357117	1087.940430	1110.379883	111.131599
863.678589	880.561523	1097.376831	1110.008423	105.825966
863.976746	873.279846	1085.934204	1096.187988	104.821808
864.274902	879.149841	1081.773315	1094.404907	106.234024
864.572937	882.939209	1080.584473	1091.061157	105.300751
864.870911	897.056702	1108.893799	1105.921753	98.597015
865.168884	882.642029	1096.039429	1090.689575	97.493011
865.466736	881.824707	1084.002319	1080.658813	98.346252
865.764587	867.409973	1063.123413	1066.615601	101.784340
866.062317	882.641907	1068.101563	1075.680542	104.086594
866.360107	885.316895	1080.510132	1082.590698	101.065903
866.657715	894.381836	1078.429688	1084.448242	103.270103
866.955322	886.951599	1087.494629	1082.590576	97.554611
867.252808	880.412903	1078.726929	1076.349121	98.800987
867.550293	877.515137	1085.859985	1075.160278	94.864426
867.847717	878.183899	1075.308960	1072.336914	98.492302
868.145081	880.115723	1076.943726	1075.903442	99.471474
868.442383	883.756592	1077.835327	1091.284058	106.929520
868.739624	881.898987	1080.287231	1094.553345	107.191010
869.036804	890.443848	1086.231445	1105.327271	109.753334
869.333984	878.109558	1075.977661	1089.649414	106.909531
869.631042	870.679260	1062.751831	1082.516357	110.290138
869.928101	861.317139	1053.686890	1077.017944	112.128235
870.224976	874.097168	1054.727173	1083.705200	116.042755
870.521851	929.229797	1114.020630	1130.441528	108.886208
870.818726	927.966736	1123.011353	1126.800781	101.942856
871.115479	929.006897	1147.679810	1127.989624	90.995598
871.412231	887.843201	1115.729614	1086.974487	87.381813
871.708862	892.598633	1104.361450	1082.739258	89.789429
872.005493	884.053772	1080.138672	1071.445190	95.566467
872.302063	884.276672	1061.637207	1078.058105	109.258484
872.598572	876.029053	1073.154175	1091.878418	109.498657
872.895020	879.298340	1075.606079	1093.141602	108.932671
873.191406	879.224121	1091.135498	1098.714233	103.576370
873.487671	887.397400	1085.191284	1087.494629	101.164520
873.783997	898.245605	1095.222046	1111.048462	108.034676
874.080200	888.957825	1079.692749	1094.033325	107.518593
874.376343	883.162170	1075.903320	1092.249878	108.481094
874.672424	890.146667	1080.733032	1086.082886	102.807053
874.968445	898.542786	1092.324219	1103.544067	105.789948
875.264465	899.211487	1097.153931	1109.562622	106.268837
875.560364	887.248718	1088.832031	1102.726685	106.892761
875.856201	871.570862	1075.754761	1085.859985	104.949081
876.152039	874.765930	1075.606079	1090.763916	107.547218
876.447754	868.004395	1077.835327	1083.036499	102.478745
876.743469	897.576843	1096.559692	1104.361450	103.920822
877.039063	901.886414	1085.042847	1095.593628	105.760529
877.334595	898.914307	1075.457642	1101.983643	115.025208
877.630127	875.508972	1061.265747	1080.807373	110.520004
877.925537	867.261414	1083.036499	1085.414185	101.101929
878.221008	866.221191	1082.887939	1076.572144	97.085022
878.516296	862.803223	1083.482300	1081.475952	99.090828
878.811646	854.481262	1079.618530	1077.909546	99.240913
879.106812	866.295410	1106.887695	1104.807129	99.135231
879.401978	870.679382	1117.141479	1105.624634	95.327133
879.697083	886.059998	1134.231079	1122.342651	95.209587
879.992126	883.830872	1148.422852	1133.339478	94.299385
880.287109	890.963928	1188.323364	1177.772461	96.451805
880.582031	889.329285	1237.066040	1237.437500	100.106819
880.876892	875.137390	1318.056030	1337.746216	104.445557
881.171753	861.465759	1464.209473	1527.440918	110.490601
881.466492	862.506042	1715.649902	1842.038696	114.814476
881.761230	872.016785	2039.535522	2220.239502	115.477600
882.055786	880.338623	2371.965820	2600.000977	115.287674
882.350403	872.165344	2607.430908	2837.621094	113.265411
882.644958	864.363586	2696.445557	2889.186768	110.520340
882.939453	861.911560	2630.093262	2748.011719	106.668907
883.233826	868.524475	2483.939697	2496.794678	100.795769
883.528137	870.456360	2295.805420	2230.419189	95.412613
883.822449	878.481018	2140.438232	1989.083984	88.006386
884.116577	872.313965	1977.492554	1794.262085	83.420738
884.410828	876.251953	1850.955078	1630.498901	77.382225
884.704956	879.744202	1725.977905	1519.341919	75.581688
884.999023	875.954773	1611.923218	1423.268555	74.366470
885.292969	878.481140	1497.348511	1357.139282	77.344223
885.586914	867.855774	1392.209961	1296.879639	81.819481
885.880798	881.453186	1332.842285	1267.975830	85.629593
886.174622	883.533691	1294.204712	1253.561157	90.103134
886.468384	886.951599	1268.198853	1225.623413	88.832588
886.762085	873.651428	1229.710083	1203.629761	92.675270
887.055664	863.026062	1198.577148	1177.698120	93.777687
887.349304	860.425476	1175.840454	1165.661133	96.772720
887.642822	861.094177	1166.998535	1147.977173	93.781921
887.936340	870.530701	1151.543579	1123.903076	90.163971
888.229736	871.273682	1129.847046	1104.286987	90.114967
888.523071	874.022888	1115.878296	1086.157104	87.711174
888.816284	900.771790	1127.246704	1108.224976	91.600952
889.109619	905.898743	1139.878052	1104.361328	84.820572
889.402710	911.694397	1132.224976	1107.036133	88.578072
889.695862	880.784424	1100.720459	1075.011841	88.310867
889.988892	865.923889	1073.674194	1064.089233	95.386307
890.281921	846.828125	1057.922119	1046.999756	94.825829
>>>>>End Processed Spectral Data<<<<<
