Jaz Data File
++++++++++++++++++++++++++++++++++++
Date: Fri Jun 04 11:43:14 2021
User: jaz
Dark Spectrum Present: Yes
Reference Spectrum Present: Yes
Processed Spectrum Present: Yes
Spectrometers: JAZA3586
Integration Time (usec): 32700 (JAZA3586)
Spectra Averaged: 10 (JAZA3586)
Boxcar Smoothing: 1 (JAZA3586)
Correct for Electrical Dark: No (JAZA3586)
Strobe/Lamp Enabled: Yes (JAZA3586)
Correct for Detector Non-linearity: No (JAZA3586)
Correct for Stray Light: No (JAZA3586)
Number of Pixels in Processed Spectrum: 2048
>>>>>Begin Processed Spectral Data<<<<<
W	D	R	S	P
191.335022	0.000000	0.000000	0.000000	0.000000
191.713211	403.835297	413.123077	399.748657	-44.000172
192.091385	811.311340	818.147278	805.887390	-79.344643
192.469528	1227.035034	1231.419067	1204.744385	-508.450745
192.847641	1239.889526	1226.886597	1207.344849	250.287277
193.225739	1250.737671	1243.307495	1213.066284	507.005310
193.603790	1255.344482	1251.777954	1226.663574	804.168823
193.981842	1258.465210	1273.177124	1239.666626	-127.777962
194.359863	1257.573608	1281.276123	1246.576782	-46.395187
194.737854	1264.186523	1280.681763	1252.372437	-71.621193
195.115829	1271.096680	1273.622925	1251.926636	-758.835449
195.493774	1282.242065	1270.576538	1259.579712	194.267715
195.871704	1281.424683	1272.656982	1263.369141	205.932480
196.249603	1276.817993	1278.749878	1268.718872	-419.234161
196.627457	1269.982178	1276.297852	1260.842896	-144.707947
197.005310	1269.090454	1275.109009	1259.802612	-154.320129
197.383133	1273.994507	1267.158691	1259.505493	211.957352
197.760910	1276.520630	1259.802612	1257.870728	111.555702
198.138687	1275.480469	1264.335083	1254.824341	185.333450
198.516449	1270.353516	1266.044067	1252.669556	410.353241
198.894180	1268.644653	1274.291626	1259.282471	-165.791183
199.271866	1269.759155	1272.582642	1257.870728	-421.054901
199.649536	1270.204956	1278.972778	1255.344482	-169.488770
200.027191	1267.084351	1277.783813	1243.901978	-216.668564
200.404816	1259.951294	1277.189453	1245.239380	-85.345039
200.782410	1252.892456	1284.619751	1251.703735	-3.746681
201.159988	1255.641724	1290.563843	1262.180298	18.723303
201.537537	1262.403198	1298.142822	1263.889282	4.158085
201.915070	1270.279419	1294.130493	1257.722168	-52.648575
202.292557	1269.536377	1303.121094	1249.697510	-59.071117
202.670029	1261.734619	1310.848633	1245.908081	-32.224079
203.047485	1254.081421	1316.941406	1247.097046	-11.111003
203.424911	1256.979126	1313.151978	1254.601440	-4.232802
203.802292	1257.127563	1309.511230	1255.344360	-3.404120
204.179688	1262.031738	1306.316284	1258.688110	-7.550327
204.557037	1254.601440	1312.631958	1250.217651	-7.554282
204.934357	1252.669556	1313.894897	1245.759399	-11.286431
205.311661	1252.446655	1315.158081	1240.632446	-18.839006
205.688934	1252.372437	1306.464722	1241.895630	-19.368393
206.066177	1249.028809	1301.040649	1239.889526	-17.571541
206.443390	1242.192871	1294.799316	1243.158813	1.836167
206.820587	1241.524292	1296.656860	1244.347656	5.121046
207.197769	1240.706909	1299.257324	1250.514771	16.751139
207.574921	1243.456177	1299.554565	1248.508667	9.006480
207.952042	1243.307495	1294.724854	1245.016357	3.323513
208.329147	1252.149536	1292.495850	1245.982300	-15.285749
208.706223	1254.006958	1297.994263	1249.994629	-9.121562
209.083267	1254.675781	1302.898193	1250.812012	-8.012394
209.460297	1252.520996	1306.539063	1236.991699	-28.748339
209.837280	1252.669556	1309.659668	1221.313843	-55.019566
210.214264	1252.075195	1309.956909	1219.456177	-56.354618
210.591217	1252.892456	1299.406128	1224.583130	-60.862377
210.968124	1249.400269	1293.907593	1233.425171	-35.893188
211.345016	1248.508667	1294.427734	1238.403442	-22.006598
211.721893	1246.428101	1297.548340	1237.734741	-17.005709
212.098724	1249.177368	1288.706421	1238.180542	-27.819605
212.475555	1249.994629	1282.242065	1238.254883	-36.405209
212.852356	1252.000854	1298.068481	1244.124756	-17.096819
213.229126	1251.555054	1306.093262	1238.626343	-23.705786
213.605865	1254.972900	1307.505005	1233.573730	-40.735413
213.982590	1256.533325	1294.130493	1231.047485	-67.786598
214.359283	1253.115356	1291.009766	1233.796631	-50.980412
214.735931	1248.434326	1292.941650	1229.264160	-43.071934
215.112579	1247.542603	1299.182983	1228.966919	-35.971237
215.489197	1249.400269	1301.114868	1224.583130	-47.988651
215.865799	1251.034790	1305.944702	1228.967041	-40.189007
216.242355	1249.474609	1304.830200	1226.960815	-40.671219
216.618896	1251.406494	1304.830078	1227.852417	-44.089287
216.995407	1252.000854	1299.926147	1233.425171	-38.759666
217.371902	1251.109253	1292.941650	1237.288940	-33.037342
217.748367	1253.412720	1290.415405	1245.908081	-20.281336
218.124802	1252.892578	1298.588745	1240.929688	-26.179199
218.501236	1253.858398	1297.994141	1233.425171	-46.296326
218.877609	1248.137085	1305.052979	1229.635742	-32.506462
219.253983	1253.041138	1299.554565	1225.326172	-59.584869
219.630295	1247.394043	1310.477051	1234.614014	-20.259068
220.006592	1252.223755	1309.956909	1238.031982	-24.581669
220.382889	1250.217651	1307.579224	1243.604614	-11.528688
220.759140	1254.155640	1297.697021	1241.821411	-28.327600
221.135391	1255.270142	1298.737305	1239.072144	-37.264908
221.511581	1247.914185	1306.613159	1239.666626	-14.050601
221.887772	1245.387939	1320.433472	1239.963867	-7.227708
222.263931	1238.106323	1321.845337	1240.855469	3.282992
222.640060	1241.449829	1319.467773	1249.028687	9.714249
223.016159	1244.124878	1310.551392	1251.852173	11.632848
223.392212	1244.793457	1315.604004	1256.756226	16.894049
223.768265	1248.805786	1321.251099	1243.455933	-7.384679
224.144302	1245.313599	1332.767944	1244.942017	-0.424887
224.520294	1248.359985	1323.405762	1232.310547	-21.386198
224.896286	1244.199097	1318.873413	1238.106079	-8.159455
225.272217	1251.480835	1311.666016	1232.384888	-31.728653
225.648148	1245.982422	1317.981812	1232.236328	-19.091959
226.024048	1250.291870	1318.055908	1223.988647	-38.815903
226.399902	1244.644897	1325.932007	1225.549072	-23.491825
226.775772	1248.582886	1336.928833	1238.180542	-11.774557
227.151581	1242.861694	1350.600586	1251.703735	8.206917
227.527374	1243.010254	1354.761597	1255.418823	11.103732
227.903137	1242.861694	1355.801636	1247.914185	4.473608
228.278870	1246.576660	1353.572510	1241.227051	-4.999829
228.654572	1247.319702	1362.786133	1233.573853	-11.904629
229.030273	1255.195801	1368.953247	1231.864868	-20.509367
229.405930	1261.808716	1381.584839	1236.025757	-21.525959
229.781555	1265.598267	1386.042969	1236.768677	-23.935955
230.157181	1262.774658	1395.628052	1239.666504	-17.393724
230.532761	1251.555054	1394.662109	1235.505615	-11.214988
230.908325	1249.846069	1391.467163	1236.100098	-9.706161
231.283859	1251.926636	1384.631226	1237.883301	-10.582403
231.659332	1256.682007	1373.114258	1235.728516	-17.996294
232.034821	1258.168091	1369.399048	1239.963745	-16.366259
232.410263	1250.960571	1366.575562	1239.443604	-9.961483
232.785690	1249.846069	1373.337280	1242.638794	-5.836266
233.161087	1251.629395	1368.061646	1238.031982	-11.678390
233.536469	1248.657227	1372.594238	1235.357056	-10.731396
233.911804	1247.245483	1374.749023	1228.075562	-15.034816
234.287140	1248.434448	1386.340210	1230.453125	-13.038849
234.662430	1251.629272	1390.649780	1231.196167	-14.697907
235.037704	1253.709839	1399.937500	1228.223999	-17.428877
235.412933	1249.846069	1402.241089	1222.502563	-17.942520
235.788162	1255.864624	1402.538086	1227.778076	-19.149033
236.163345	1255.344482	1399.417358	1238.180542	-11.913374
236.538513	1254.304321	1399.120117	1245.908081	-5.797876
236.913635	1245.239380	1395.776489	1245.016357	-0.148151
237.288742	1241.598511	1400.903442	1242.935913	0.839523
237.663834	1244.719116	1399.863281	1239.889404	-3.113048
238.038879	1246.353882	1402.612305	1233.350830	-8.321505
238.413910	1254.898560	1407.813477	1238.477661	-10.738585
238.788910	1248.359985	1420.742188	1244.644897	-2.155146
239.163879	1251.257813	1428.544312	1248.731567	-1.424951
239.538834	1239.815308	1431.144897	1248.880005	4.737740
239.913757	1241.078247	1442.141602	1244.570557	1.736920
240.288651	1245.016235	1468.147461	1252.223755	3.230171
240.663528	1253.561157	1496.233887	1253.932617	0.153070
241.038361	1254.378540	1520.456543	1258.167969	1.424180
241.413177	1253.561157	1545.496460	1263.294800	3.334178
241.787979	1254.527222	1566.152710	1265.301147	3.457331
242.162735	1257.722168	1600.777710	1265.152466	2.165917
242.537476	1257.202148	1630.647461	1258.911011	0.457594
242.912170	1258.688110	1650.709351	1252.149414	-1.667944
243.286865	1260.545654	1653.012695	1257.499146	-0.776246
243.661514	1262.774780	1638.746582	1255.864624	-1.837945
244.036148	1251.777832	1623.514526	1259.654053	2.118763
244.410751	1249.251587	1607.911011	1257.499146	2.299552
244.785339	1253.115356	1612.369141	1257.499390	1.220317
245.159882	1255.047241	1625.297852	1258.093628	0.822790
245.534378	1255.790405	1655.539063	1255.121582	-0.167311
245.908890	1250.663452	1697.594360	1257.350586	1.496234
246.283356	1260.991577	1767.513184	1260.025513	-0.190725
246.657791	1257.424927	1842.112915	1265.152344	1.321631
247.032196	1252.818115	1903.412720	1267.010010	2.181373
247.406586	1240.335327	1938.632324	1270.205078	4.277514
247.780960	1243.233154	1949.257690	1270.279419	3.830783
248.155289	1241.969971	1936.626099	1269.387695	3.946949
248.529602	1250.217529	1903.338501	1256.087402	0.898742
248.903870	1247.542603	1852.589722	1254.378540	1.129819
249.278122	1246.205200	1793.147461	1250.068970	0.706431
249.652344	1245.610840	1748.194336	1253.858521	1.641057
250.026550	1248.434448	1710.448608	1241.078369	-1.592176
250.400711	1255.121582	1689.346680	1244.421997	-2.464064
250.774857	1254.304199	1687.637695	1244.050659	-2.366201
251.148987	1256.756104	1713.792358	1255.418945	-0.292572
251.523071	1252.520874	1746.634155	1253.264038	0.150404
251.897125	1252.520996	1767.735962	1264.483765	2.321898
252.271164	1246.502441	1771.005249	1270.948120	4.660734
252.645187	1243.456055	1771.896973	1270.502075	5.118078
253.019165	1240.483887	1770.782349	1262.477417	4.147387
253.393112	1241.747070	1759.562866	1253.561157	2.281523
253.767044	1245.462280	1737.123413	1258.688110	2.690030
254.140930	1251.406372	1713.569336	1254.824341	0.739559
254.514801	1256.310425	1698.188843	1255.418823	-0.201775
254.888657	1261.437256	1698.040039	1247.839844	-3.114367
255.262466	1258.539429	1707.922363	1249.474487	-2.017198
255.636276	1260.025513	1728.727173	1247.096802	-2.758410
256.010010	1254.229980	1742.918945	1247.839966	-1.307583
256.383759	1249.846069	1763.500854	1256.607666	1.316370
256.757446	1243.307373	1792.701660	1257.424927	2.569658
257.131134	1243.901733	1840.106812	1262.328979	3.090756
257.504791	1247.691284	1883.499634	1265.301147	2.769681
257.878418	1250.588989	1950.817871	1274.663208	3.438050
258.252014	1253.338257	2027.721191	1274.663208	2.753799
258.625580	1243.158691	2142.444580	1277.115234	3.775945
258.999115	1249.474487	2266.381592	1280.681763	3.068842
259.372650	1252.000854	2403.841553	1293.907715	3.638251
259.746124	1259.876953	2521.091309	1300.371948	3.210794
260.119598	1248.434204	2597.771729	1306.761841	4.322687
260.493042	1244.421997	2592.793457	1297.325439	3.923506
260.866425	1246.279663	2543.605225	1287.369019	3.167235
261.239838	1253.264038	2430.665039	1279.418457	2.221369
261.613159	1251.629272	2332.957031	1280.384521	2.659254
261.986511	1254.973022	2226.852539	1281.499146	2.729363
262.359802	1250.589233	2173.651611	1273.251465	2.455114
262.733063	1249.103149	2146.754150	1270.650757	2.400444
263.106293	1249.400269	2132.933838	1264.706665	1.732407
263.479523	1250.812012	2116.661621	1272.136841	2.462879
263.852692	1245.239380	2106.482178	1271.616821	3.062718
264.225861	1234.242554	2094.445068	1275.108887	4.750781
264.598969	1241.747070	2104.475830	1274.217285	3.763664
264.972076	1248.211426	2117.553467	1277.635132	3.384595
265.345154	1255.567383	2170.976807	1279.641357	2.629859
265.718201	1253.709839	2216.524414	1281.796265	2.917117
266.091217	1256.310547	2273.663086	1281.276245	2.453987
266.464203	1259.876953	2317.427490	1285.065552	2.381787
266.837158	1257.796387	2356.882324	1286.625854	2.623040
267.210114	1258.093628	2389.649902	1286.923218	2.547782
267.583038	1253.115356	2409.785889	1286.180054	2.858610
267.955902	1249.920410	2427.544189	1286.923218	3.142159
268.328766	1249.697510	2438.838135	1290.043823	3.392897
268.701569	1252.149536	2445.376953	1296.656860	3.729995
269.074371	1249.548950	2456.447998	1299.108765	4.106376
269.447144	1252.446655	2480.299072	1304.161377	4.211803
269.819885	1259.802612	2541.747314	1303.567017	3.413907
270.192596	1248.880127	2640.570068	1301.932251	3.812065
270.565277	1247.765625	2764.432617	1305.052856	3.777179
270.937927	1238.106323	2888.889648	1305.573120	4.086957
271.310577	1252.372437	2975.675049	1312.929077	3.513988
271.683136	1249.400391	3046.857422	1312.483276	3.509563
272.055725	1249.623169	3069.371094	1310.179810	3.327749
272.428284	1247.914185	3061.197998	1305.796021	3.192100
272.800812	1250.960571	3005.768311	1300.966431	2.849649
273.173279	1246.353882	2929.681885	1295.616577	2.926506
273.545776	1248.582886	2884.951904	1298.885864	3.074061
273.918152	1251.332153	2853.521484	1300.817871	3.088631
274.290558	1251.257935	2862.661133	1303.418457	3.236963
274.662964	1248.062866	2850.846680	1295.765137	2.976214
275.035278	1246.576782	2868.605225	1297.919922	3.165366
275.407593	1256.904785	2897.137451	1303.566895	2.844847
275.779907	1253.338257	2950.858398	1306.464722	3.129652
276.152161	1248.360107	3002.647217	1306.241821	3.299444
276.524384	1243.233154	3033.705811	1313.077759	3.900903
276.896606	1240.929688	3057.482666	1323.257202	4.532073
277.268799	1238.031982	3052.281494	1324.074341	4.742587
277.640930	1232.162109	3060.083252	1324.520386	5.052640
278.013031	1235.357056	3071.599854	1325.337769	4.900262
278.385162	1238.700562	3082.745361	1326.823730	4.778798
278.757233	1244.867798	3093.742432	1327.863892	4.489006
279.129272	1247.468384	3123.166260	1316.569946	3.684046
279.501282	1245.610840	3163.364014	1321.622559	3.963582
279.873230	1245.982300	3227.264404	1315.232544	3.495224
280.245178	1246.353882	3304.984619	1330.836060	4.103804
280.617126	1246.651001	3428.178955	1335.219849	4.059946
280.988983	1247.988525	3537.923828	1338.043335	3.932636
281.360870	1247.319702	3639.346924	1336.854492	3.743050
281.732697	1248.359985	3707.408447	1333.362305	3.456716
282.104492	1249.771851	3750.801025	1335.814331	3.440283
282.476288	1256.533325	3773.463623	1332.767944	3.028873
282.848053	1254.750122	3762.615479	1340.049683	3.401282
283.219757	1248.359985	3767.890869	1339.678101	3.624410
283.591461	1244.198975	3740.399170	1351.046387	4.280402
283.963135	1245.536499	3750.578369	1341.015503	3.811473
284.334747	1250.588989	3796.869141	1347.108398	3.790604
284.706360	1248.731567	3884.397705	1345.547974	3.673318
285.077942	1249.177246	3991.096436	1358.996704	4.005204
285.449524	1255.195801	4070.377686	1370.290649	4.088363
285.821014	1256.087524	4108.866211	1367.764526	3.914675
286.192535	1262.626099	4144.902832	1370.067871	3.727670
286.563995	1257.944946	4133.386230	1364.272339	3.697776
286.935425	1256.533325	4118.748535	1370.513672	3.982242
287.306824	1252.595215	4045.262939	1369.547729	4.187842
287.678223	1253.932739	3963.827393	1368.804688	4.238982
288.049561	1256.087524	3918.205078	1362.860474	4.010828
288.420898	1254.304199	3909.585938	1358.253784	3.914823
288.792145	1247.468384	3958.848877	1350.452026	3.798200
289.163452	1246.353882	4039.244385	1346.959717	3.602212
289.534668	1240.855469	4150.327148	1342.353027	3.488522
289.905914	1243.753296	4259.923828	1348.000000	3.456260
290.277039	1253.041016	4366.548340	1354.984375	3.274229
290.648193	1265.301025	4415.661621	1359.739746	2.997711
291.019318	1267.232788	4430.894043	1364.569458	3.076710
291.390381	1254.601440	4363.798340	1362.711914	3.477119
291.761475	1250.143188	4294.177246	1359.442627	3.590611
292.132507	1249.177368	4250.933105	1355.430298	3.539693
292.503510	1253.635620	4249.818359	1357.064819	3.452033
292.874481	1252.298096	4307.997559	1369.770508	3.844371
293.245422	1250.440552	4376.950684	1371.182251	3.861868
293.616364	1252.446655	4513.444824	1379.430054	3.894004
293.987213	1243.976196	4630.322754	1378.909790	3.984636
294.358093	1240.261108	4755.076660	1392.135742	4.320985
294.728943	1234.093872	4861.255371	1394.959351	4.435024
295.099731	1245.387939	4955.545898	1397.634277	4.103500
295.470490	1248.880127	5068.337402	1390.352539	3.703993
295.841248	1256.979126	5146.132324	1392.284546	3.479046
296.211975	1253.858398	5275.864746	1400.086304	3.635695
296.582642	1249.994751	5404.037109	1419.999146	4.092505
296.953308	1240.409668	5463.851074	1428.098267	4.443973
297.323883	1239.443726	5462.067871	1422.451294	4.333977
297.694519	1244.347656	5341.622559	1403.058228	3.873564
298.065063	1244.124756	5235.221191	1387.231812	3.585658
298.435608	1242.267212	5069.228516	1379.132813	3.576352
298.806122	1239.592285	4894.691406	1375.566406	3.720121
299.176575	1247.839966	4724.018066	1371.108032	3.546080
299.547028	1256.458984	4617.319824	1369.547729	3.364874
299.917450	1256.384644	4581.357422	1366.427124	3.309576
300.287872	1255.047241	4569.691895	1367.764648	3.400588
300.658234	1250.291870	4560.775391	1371.182495	3.651752
301.028564	1255.047241	4532.540039	1373.783081	3.622764
301.398865	1245.833618	4508.763184	1372.965698	3.896255
301.769135	1243.753296	4455.116699	1365.312500	3.785284
302.139374	1241.152710	4408.380371	1356.024658	3.626893
302.509583	1255.716064	4365.284668	1353.126831	3.132613
302.879791	1254.675781	4320.108887	1361.077271	3.471010
303.249939	1257.202026	4291.873535	1365.461060	3.567405
303.620087	1254.898682	4251.898926	1358.848145	3.468450
303.990173	1251.332153	4240.604980	1351.937988	3.365562
304.360260	1250.886230	4215.861816	1349.634644	3.330497
304.730286	1247.616943	4220.840332	1357.362183	3.691120
305.100281	1259.579590	4220.394531	1358.922485	3.355255
305.470276	1260.768677	4239.639160	1356.767700	3.222665
305.840179	1255.567505	4236.518066	1352.681152	3.257808
306.210144	1252.743896	4277.235840	1349.560425	3.201084
306.579987	1252.372314	4310.746582	1358.625366	3.474168
306.949890	1253.784058	4358.151855	1359.739868	3.413121
307.319702	1246.502441	4417.073730	1363.529175	3.691030
307.689484	1240.929810	4517.084961	1355.281738	3.490431
308.059265	1247.468384	4625.046875	1359.962769	3.330622
308.429016	1258.019409	4713.318848	1363.900757	3.064318
308.798737	1257.796509	4784.649414	1374.303223	3.303418
309.168396	1256.310547	4848.326660	1383.590942	3.543425
309.538055	1248.285767	4871.583496	1382.848022	3.713806
309.907684	1251.257813	4874.332520	1385.597168	3.707883
310.277313	1247.171143	4882.951660	1384.036743	3.764408
310.646851	1255.567383	4880.425293	1381.213257	3.466229
311.016388	1257.202026	4880.500000	1386.191528	3.560003
311.385895	1255.864502	4805.454102	1381.139038	3.529268
311.755371	1248.285645	4764.810547	1378.909790	3.714581
312.124817	1246.799683	4690.879395	1370.067993	3.579137
312.494232	1246.056641	4670.148926	1369.324829	3.600025
312.863617	1249.623169	4635.226563	1379.132813	3.825305
313.232971	1255.047363	4654.173828	1376.680786	3.578373
313.602295	1255.493164	4725.801758	1373.411499	3.397921
313.971619	1253.858521	4811.546875	1378.835571	3.512872
314.340820	1245.536621	4840.599121	1375.640625	3.618964
314.710083	1247.765625	4831.237305	1382.773804	3.767525
315.079285	1245.907959	4756.637207	1366.352661	3.430760
315.448486	1251.183472	4674.310059	1368.878906	3.438244
315.817596	1249.103027	4553.642090	1359.293945	3.334532
316.186707	1255.641724	4463.290039	1360.557007	3.270785
316.555786	1253.635620	4389.210449	1354.389893	3.213263
316.924866	1259.208252	4335.341309	1360.259888	3.285022
317.293884	1252.149414	4330.956543	1356.693359	3.395599
317.662872	1253.338257	4342.548340	1362.117554	3.521266
318.031830	1248.657227	4387.204102	1357.064941	3.454073
318.400757	1247.245483	4400.504395	1359.814087	3.569913
318.769684	1247.319702	4424.430176	1362.043091	3.610935
319.138550	1242.415894	4428.367676	1362.637573	3.773494
319.507416	1246.428101	4402.956543	1362.043091	3.662726
319.876190	1245.908081	4364.393066	1365.015259	3.819392
320.244995	1257.053345	4297.223145	1368.507446	3.666049
320.613770	1258.911011	4260.443848	1371.851196	3.762750
320.982483	1258.836670	4259.923828	1369.101929	3.674177
321.351166	1257.499390	4304.356934	1363.009155	3.462905
321.719818	1250.812134	4375.167480	1359.368286	3.474514
322.088440	1245.759399	4486.621094	1358.328003	3.473416
322.457062	1252.075195	4640.873535	1367.318726	3.400720
322.825623	1248.062866	4818.457031	1377.795288	3.633560
323.194183	1245.685181	4927.607910	1384.705566	3.775755
323.562653	1232.830688	5006.888672	1392.730347	4.236810
323.931183	1239.072144	5010.083496	1391.392700	4.039249
324.299591	1244.421997	4994.703125	1395.553711	4.029877
324.668060	1246.353882	4925.304688	1393.398926	3.996929
325.036407	1242.861694	4873.738281	1396.816895	4.240166
325.404755	1250.812012	4804.934082	1392.135742	3.976333
325.773102	1249.623169	4740.810547	1392.284546	4.086328
326.141388	1254.006958	4652.019043	1391.987305	4.060619
326.509674	1253.041016	4567.610840	1393.473267	4.236817
326.877899	1248.137085	4491.822266	1389.980957	4.372924
327.246124	1249.846069	4442.633789	1388.197754	4.333257
327.614288	1248.731567	4409.123047	1392.061523	4.535196
327.982422	1259.728394	4396.789063	1397.114136	4.379442
328.350525	1261.437256	4411.054688	1409.002441	4.685178
328.718628	1259.282471	4458.163086	1407.962280	4.647870
329.086700	1260.917114	4509.060547	1415.244019	4.751234
329.454712	1258.539429	4551.784668	1410.711548	4.620735
329.822693	1254.750000	4589.827637	1416.878540	4.861312
330.190674	1253.041138	4632.254395	1416.878540	4.848389
330.558563	1248.359985	4672.304199	1423.268555	5.108394
330.926483	1248.805786	4745.120117	1430.773071	5.204546
331.294312	1240.483887	4834.135254	1437.683472	5.487443
331.662231	1241.598511	4938.456055	1454.475952	5.758335
332.029999	1242.638672	5027.768066	1460.940063	5.767343
332.397766	1249.325806	5094.714844	1462.946289	5.555237
332.765503	1245.908081	5138.851074	1461.757324	5.544629
333.133240	1248.285645	5157.426270	1474.909058	5.797269
333.500916	1246.651001	5151.853516	1485.682983	6.120860
333.868561	1251.926514	5152.373535	1493.930664	6.204524
334.236176	1251.406372	5127.259277	1498.983032	6.387669
334.603790	1245.610840	5102.145020	1506.933472	6.776101
334.971344	1240.186646	5072.126465	1512.580566	7.108512
335.338867	1233.648071	5047.829590	1509.014038	7.219530
335.706360	1235.208374	5034.380859	1510.054321	7.234364
336.073853	1239.815308	5040.622559	1515.181152	7.244931
336.441284	1236.694580	5068.931641	1528.035522	7.602373
336.808655	1239.295166	5103.854004	1539.478149	7.767587
337.176086	1240.335327	5131.419922	1553.892944	8.058361
337.543396	1252.297974	5159.878418	1563.477905	7.963494
337.910706	1256.607544	5169.314453	1579.007202	8.239811
338.277954	1260.174194	5176.001953	1580.121704	8.170623
338.645264	1260.842896	5140.856934	1587.923462	8.429881
339.012421	1255.864624	5103.333984	1586.140137	8.584228
339.379669	1252.595215	5020.040527	1596.022461	9.115653
339.746796	1248.508545	4962.901855	1591.044312	9.221849
340.113953	1248.954468	4892.388184	1594.610718	9.487102
340.481018	1248.805664	4858.654785	1599.143188	9.705047
340.848114	1249.697388	4832.574707	1608.802612	10.022817
341.215118	1247.468384	4872.623535	1623.588867	10.375293
341.582153	1251.109131	5001.019043	1643.799194	10.471987
341.949066	1251.406372	5185.141602	1677.161011	10.823164
342.316010	1257.276367	5433.906738	1707.848022	10.787923
342.682922	1249.103027	5685.271973	1743.067505	11.134933
343.049835	1244.867798	6012.130371	1786.757446	11.366893
343.416656	1240.409546	6306.963379	1836.243164	11.760137
343.783478	1243.901855	6538.564941	1887.289063	12.151617
344.150269	1242.638672	6650.093750	1925.257813	12.623668
344.516998	1246.576660	6658.489746	1944.799438	12.901588
344.883728	1246.130859	6581.884277	1940.118286	13.006362
345.250427	1253.709839	6456.980469	1932.911011	13.053351
345.617065	1247.914185	6312.759277	1927.412598	13.415976
345.983704	1251.034912	6167.869141	1925.629395	13.720098
346.350281	1252.297974	6040.885254	1921.839966	13.982036
346.716827	1256.756226	5904.094238	1914.484009	14.152786
347.083405	1251.926636	5820.578125	1916.861694	14.554296
347.449860	1247.022583	5760.095703	1923.548828	14.990367
347.816376	1243.084473	5749.024902	1936.254517	15.383471
348.182770	1250.291870	5735.946777	1945.393921	15.496111
348.549194	1253.561157	5767.451172	1959.214233	15.632925
348.915558	1254.601440	5844.429199	1987.895020	15.976495
349.281921	1250.960571	5929.728516	2016.798706	16.368372
349.648193	1244.347656	5985.307129	2040.947144	16.802496
350.014526	1246.874023	6012.204590	2055.138916	16.961361
350.380737	1254.601440	6037.765137	2075.720947	17.166870
350.746948	1257.796387	6064.736328	2103.584229	17.595140
351.113159	1254.601440	6123.138672	2129.070068	17.961630
351.479309	1237.140259	6198.184082	2148.388916	18.368082
351.845428	1243.901978	6339.210938	2181.973877	18.410500
352.211517	1247.542847	6452.447754	2211.471924	18.519629
352.577576	1255.047363	6588.719238	2256.053467	18.767673
352.943604	1248.582886	6718.451660	2296.251221	19.153446
353.309601	1246.353882	6873.893066	2348.114502	19.578018
353.675537	1252.298096	7036.467285	2396.485596	19.781364
354.041473	1248.285767	7189.457031	2441.290283	20.080292
354.407379	1243.307495	7297.790527	2477.401367	20.383142
354.773254	1236.174316	7427.375000	2516.410400	20.678316
355.139038	1240.186768	7566.023438	2560.917725	20.878359
355.504913	1251.926636	7827.346191	2636.855225	21.062208
355.870636	1251.480835	8092.160645	2721.782959	21.493509
356.236389	1250.812012	8382.089844	2803.813232	21.777321
356.602081	1237.586060	8659.165039	2879.824951	22.127890
356.967804	1235.505615	8859.187500	2926.412842	22.179667
357.333405	1242.118530	8955.930664	2962.449463	22.301956
357.699036	1248.211426	8933.194336	2980.802490	22.545153
358.064606	1257.722168	8878.877930	2995.068359	22.796362
358.430176	1254.155640	8834.593750	3003.910400	23.082502
358.795654	1262.774658	8892.624023	3032.666016	23.196936
359.161163	1258.316528	9070.430664	3079.104736	23.307240
359.526581	1251.629272	9420.991211	3177.332764	23.572264
359.892029	1246.948242	9933.977539	3302.309814	23.660120
360.257416	1245.982300	10515.841797	3461.243164	23.897457
360.622772	1249.846069	11021.247070	3592.833740	23.978012
360.988098	1244.273315	11325.739258	3696.188721	24.321022
361.353394	1247.468384	11418.247070	3739.358643	24.500486
361.718658	1248.880127	11229.742188	3717.810791	24.736647
362.083893	1250.291870	10800.941406	3608.288330	24.689384
362.449097	1243.530273	10185.937500	3472.686279	24.927919
362.814209	1241.226929	9547.528320	3319.176758	25.016544
363.179382	1241.449829	8957.192383	3196.131592	25.333683
363.544434	1246.799683	8545.926758	3103.475830	25.436962
363.909546	1252.595215	8267.663086	3052.058594	25.651403
364.274536	1259.282593	8089.263184	3018.993408	25.764507
364.639587	1258.911133	7943.554688	2988.826904	25.878954
365.004517	1248.582886	7856.769531	2972.108643	26.081675
365.369507	1242.341431	7804.312012	2973.669189	26.384266
365.734344	1245.164917	7811.370605	2981.025146	26.436275
366.099274	1254.304199	7800.299316	2987.192383	26.472494
366.464081	1255.047241	7775.333496	2968.319336	26.276026
366.828918	1254.378418	7686.765137	2948.034912	26.330141
367.193665	1247.839844	7615.285645	2915.936279	26.197262
367.558411	1249.846069	7542.915527	2902.710205	26.264833
367.923126	1244.942017	7459.622559	2886.437500	26.413191
368.287781	1249.920410	7408.576172	2884.059814	26.534027
368.652435	1247.988525	7378.557129	2889.410156	26.774380
369.017059	1251.406372	7424.922363	2905.905273	26.799944
369.381653	1246.725342	7456.353027	2912.666748	26.828362
369.746185	1249.697388	7529.614746	2924.703857	26.672428
370.110687	1246.428101	7614.766113	2938.747070	26.573950
370.475220	1242.935913	7698.728027	2961.780518	26.624846
370.839661	1244.719116	7742.937500	2981.099609	26.720871
371.204041	1245.090698	7772.361816	2992.988037	26.778379
371.568451	1247.394165	7769.166504	2998.486572	26.849947
371.932770	1238.403442	7767.160645	2988.604248	26.807564
372.297150	1239.295166	7715.223145	2974.114990	26.788746
372.661377	1236.991821	7748.213379	2975.452393	26.699453
373.025696	1244.942139	7785.513184	2973.000732	26.420607
373.389862	1244.867798	7876.162598	2983.774414	26.222731
373.754059	1247.988403	7944.595215	2990.239014	26.016916
374.118225	1248.359985	8044.309082	3021.446045	26.090338
374.482361	1249.251587	8193.879883	3060.677734	26.083845
374.846436	1254.155640	8406.015625	3119.005127	26.075027
375.210510	1248.582886	8727.746094	3179.190674	25.813152
375.574524	1248.211304	9053.860352	3251.041260	25.658724
375.938538	1247.468384	9388.074219	3322.520264	25.490139
376.302460	1244.050415	9648.357422	3388.055420	25.510788
376.666412	1245.536621	9811.377930	3429.219482	25.492916
377.030304	1243.530396	9796.962891	3424.612549	25.499495
377.394196	1250.960571	9651.701172	3386.940674	25.426092
377.757996	1254.750000	9408.434570	3311.672607	25.226910
378.121796	1247.319702	9112.040039	3229.196289	25.199581
378.485565	1239.889404	8825.974609	3145.085938	25.114359
378.849304	1234.614014	8622.384766	3086.832275	25.071411
379.212982	1242.044312	8499.116211	3047.600586	24.879955
379.576630	1244.421997	8433.953125	3018.919678	24.681688
379.940277	1247.542603	8413.668945	2997.148682	24.414948
380.303864	1251.183472	8401.038086	2986.300537	24.267866
380.667450	1257.127808	8418.870117	2993.285156	24.242109
381.030945	1255.493164	8415.452148	3000.343750	24.369560
381.394501	1254.081299	8492.503906	3008.517334	24.237822
381.757935	1255.864624	8557.815430	3025.755615	24.238605
382.121399	1251.629272	8644.006836	3047.600586	24.294909
382.484741	1252.966797	8782.209961	3075.984131	24.212492
382.848145	1252.149414	8924.648438	3095.971680	24.031574
383.211487	1253.189819	9072.659180	3114.770264	23.806992
383.574768	1253.709839	9137.155273	3133.420166	23.843767
383.938019	1252.297974	9181.364258	3125.915283	23.629734
384.301270	1256.830566	9196.374023	3120.565674	23.474085
384.664459	1257.276245	9219.184570	3118.485107	23.376417
385.027649	1254.824341	9235.234375	3125.766846	23.444189
385.390778	1248.137207	9340.892578	3146.645752	23.459358
385.753876	1249.474609	9420.024414	3163.884033	23.430607
386.116943	1251.257813	9535.491211	3181.568359	23.301016
386.479980	1252.446655	9572.715820	3175.846924	23.117043
386.842987	1249.251587	9623.391602	3163.438721	22.858315
387.205994	1252.372437	9631.787109	3156.082764	22.718893
387.568909	1252.743896	9621.385742	3151.550049	22.689539
387.931793	1250.663452	9562.538086	3124.355225	22.542347
388.294678	1248.211426	9519.813477	3107.265625	22.475142
388.657471	1253.784180	9495.887695	3092.850830	22.313074
389.020294	1258.539551	9545.595703	3099.983643	22.220726
389.383057	1257.053467	9703.415039	3133.865967	22.220367
389.745819	1250.366211	9918.299805	3166.856201	22.110113
390.108521	1247.617065	10178.582031	3211.883545	21.993889
390.471191	1248.805786	10465.686523	3252.304443	21.737274
390.833801	1251.777954	10704.420898	3301.492920	21.684040
391.196442	1248.657227	10865.508789	3333.591553	21.680010
391.558960	1247.839966	10885.497070	3335.151611	21.657873
391.921509	1246.502441	10839.726563	3311.375000	21.524281
392.284027	1241.970093	10792.395508	3280.390869	21.343769
392.646484	1239.815308	10765.201172	3253.716064	21.142458
393.008911	1238.626465	10738.674805	3228.899170	20.950130
393.371307	1245.685059	10743.875977	3234.026123	20.933891
393.733673	1241.895630	10714.824219	3200.738281	20.678322
394.096008	1249.548828	10638.514648	3168.119141	20.434309
394.458344	1246.799683	10508.633789	3107.636963	20.091455
394.820587	1250.737793	10270.270508	3061.272217	20.073483
395.182831	1250.366333	10065.195313	3005.248047	19.908289
395.545013	1248.805786	9788.937500	2945.880127	19.871758
395.907196	1246.205200	9622.945313	2896.394531	19.699659
396.269287	1243.381714	9517.138672	2868.382080	19.640417
396.631409	1250.291870	9491.652344	2846.239990	19.365105
396.993469	1255.864624	9469.063477	2830.933594	19.177290
397.355530	1254.898682	9478.277344	2818.970703	19.019821
397.717499	1251.777954	9524.643555	2820.903076	18.967131
398.079468	1249.103027	9549.906250	2822.240234	18.951628
398.441376	1248.582886	9528.358398	2815.478760	18.924377
398.803284	1244.942017	9478.797852	2782.934326	18.678885
399.165131	1238.700684	9482.586914	2754.476318	18.386663
399.526978	1240.484009	9509.781250	2731.367920	18.029150
399.888763	1249.400269	9526.277344	2722.377197	17.796289
400.250519	1261.585938	9504.358398	2709.597412	17.567043
400.612244	1265.003784	9512.383789	2691.467529	17.295963
400.973938	1263.889282	9582.971680	2698.971924	17.250492
401.335602	1257.499268	9702.152344	2707.813721	17.174351
401.697205	1253.115356	9870.893555	2723.417725	17.061270
402.058807	1241.449951	10025.962891	2731.145264	16.958200
402.420349	1239.146606	10268.264648	2748.234619	16.713570
402.781860	1239.443726	10481.959961	2770.451172	16.564833
403.143341	1241.301147	10696.545898	2782.488281	16.299812
403.504822	1241.375488	10853.101563	2802.253174	16.239305
403.866241	1240.929688	10996.208008	2804.482178	16.027760
404.227631	1242.118530	11115.687500	2811.317627	15.892926
404.588959	1246.502441	11149.867188	2792.742188	15.613276
404.950287	1247.839966	11067.984375	2775.503906	15.556430
405.311554	1254.155640	10983.502930	2742.141846	15.293792
405.672821	1255.790161	10861.645508	2703.281494	15.068844
406.034027	1260.397095	10753.089844	2667.839111	14.826584
406.395203	1252.297974	10558.788086	2627.567139	14.777528
406.756348	1246.502441	10455.210938	2605.499268	14.757734
407.117493	1245.239258	10406.913086	2579.196045	14.560186
407.478516	1253.784058	10458.553711	2574.514893	14.348331
407.839600	1260.025513	10495.780273	2574.738037	14.235030
408.200592	1257.499146	10620.831055	2576.372559	14.085514
408.561554	1255.790283	10773.151367	2581.350830	13.927815
408.922485	1252.892578	10947.835938	2580.385010	13.692627
409.283417	1250.886353	11035.217773	2590.713135	13.693596
409.644257	1248.731567	11119.476563	2583.951416	13.527042
410.005096	1251.332153	11194.448242	2576.967041	13.332188
410.365906	1250.812134	11206.708008	2556.459229	13.114311
410.726715	1254.155762	11163.315430	2529.190430	12.867232
411.087433	1256.533325	11074.152344	2496.274414	12.627716
411.448120	1256.904785	11006.239258	2475.098145	12.495145
411.808807	1253.041016	10968.940430	2462.392334	12.447137
412.169434	1251.480713	10950.140625	2451.023682	12.368131
412.530029	1255.715942	11024.815430	2440.547119	12.128356
412.890564	1261.957397	11142.288086	2436.906250	11.891796
413.251099	1258.390991	11296.614258	2443.221924	11.803193
413.611572	1257.647827	11460.971680	2458.379639	11.768045
413.972076	1252.372314	11598.655273	2464.175293	11.712447
414.332489	1248.062866	11701.043945	2469.822510	11.688145
414.692871	1246.130981	11906.639648	2471.531494	11.494765
415.053223	1241.226929	12089.944336	2479.630371	11.415206
415.413574	1247.171265	12404.987305	2505.636475	11.278777
415.773834	1243.158813	12597.133789	2526.218018	11.300529
416.134094	1241.672729	12895.905273	2558.317139	11.297565
416.494263	1242.192749	13157.674805	2563.815430	11.091642
416.854462	1256.533325	13571.688477	2577.561279	10.726848
417.214630	1266.118286	13996.700195	2593.907959	10.429921
417.574738	1261.882935	14460.350586	2628.012695	10.350669
417.934784	1250.143188	14940.569336	2672.743164	10.391203
418.294861	1244.867676	15489.518555	2719.999756	10.355692
418.654846	1245.239258	16104.668945	2759.751709	10.192265
419.014832	1246.651001	16730.000000	2800.841064	10.037816
419.374756	1249.771729	17380.373047	2847.206055	9.903130
419.734680	1257.276245	18072.353516	2908.357178	9.819050
420.094543	1255.641724	18675.097656	2939.415771	9.666055
420.454376	1253.784180	19024.765625	2953.979248	9.567255
420.814148	1246.056641	19215.279297	2950.561279	9.485689
421.173920	1245.759399	19328.291016	2960.072021	9.480491
421.533691	1241.524170	19451.486328	2959.254639	9.432916
421.893341	1245.462280	19458.767578	2942.759033	9.318994
422.253021	1248.434204	19398.880859	2922.326172	9.222318
422.612640	1248.211426	19316.181641	2895.651367	9.118013
422.972260	1245.090698	19353.630859	2891.267578	9.090611
423.331757	1244.421997	19483.882813	2885.843506	8.999288
423.691315	1246.948242	19673.353516	2882.871094	8.878144
424.050781	1245.536499	19659.978516	2861.695068	8.776582
424.410248	1248.657227	19441.751953	2830.710938	8.695903
424.769653	1256.013184	19108.429688	2791.999023	8.603798
425.128998	1256.087524	18733.722656	2754.253174	8.571901
425.488373	1246.428101	18267.843750	2701.349854	8.547595
425.847656	1238.849243	17824.554688	2659.517334	8.565618
426.206940	1238.923462	17377.029297	2604.236084	8.460179
426.566193	1247.394043	17001.501953	2570.651367	8.399444
426.925385	1251.480713	16565.716797	2526.218262	8.323873
427.284576	1249.846069	16153.262695	2485.722900	8.292574
427.643677	1247.914185	15820.164063	2440.992920	8.187334
428.002777	1242.935913	15626.976563	2417.736084	8.167386
428.361847	1245.833618	15459.870117	2392.844971	8.069569
428.720856	1238.403442	15258.362305	2366.987549	8.049839
429.079865	1239.592285	15094.895508	2343.359131	7.966386
429.438812	1239.146484	15031.664063	2334.219971	7.939620
429.797760	1244.867676	15015.688477	2324.857910	7.842599
430.156616	1249.548828	14889.596680	2298.703125	7.691720
430.515503	1251.926514	14782.006836	2277.081055	7.576855
430.874268	1258.167969	14759.195313	2268.907715	7.486392
431.233093	1254.601440	14876.221680	2275.966553	7.498118
431.591827	1246.799683	15062.721680	2280.127686	7.479255
431.950562	1237.140259	15216.975586	2280.053467	7.460125
432.309204	1238.849365	15356.441406	2285.551758	7.414171
432.667877	1248.062866	15523.696289	2301.452637	7.378935
433.026459	1250.217529	15619.546875	2311.780518	7.387701
433.385010	1245.387817	15707.668945	2303.755859	7.318127
433.743561	1244.719116	15695.706055	2289.341064	7.228724
434.102051	1243.976074	15716.213867	2276.486572	7.134422
434.460510	1255.270142	15720.078125	2271.954346	7.028674
434.818939	1257.722046	15681.812500	2263.260742	6.971245
435.177338	1260.619995	15659.149414	2258.282471	6.928919
435.535675	1257.424927	15620.808594	2256.425049	6.955186
435.894012	1252.297974	15646.815430	2247.582764	6.914332
436.252289	1249.697510	15796.906250	2254.344482	6.906115
436.610535	1249.994629	15897.734375	2244.908203	6.792267
436.968719	1252.372314	16186.402344	2259.174072	6.741662
437.326935	1252.075073	16484.654297	2260.511719	6.620262
437.685028	1247.096802	16818.568359	2289.118164	6.691862
438.043152	1242.044189	17039.693359	2305.093262	6.729160
438.401215	1240.260864	17339.580078	2323.297607	6.727221
438.759277	1244.644897	17734.646484	2334.368652	6.608391
439.117249	1251.703613	18298.976563	2353.538818	6.463410
439.475250	1255.715942	18699.021484	2375.309326	6.418470
439.833130	1252.446655	19135.701172	2401.909668	6.427594
440.191071	1254.081421	19267.585938	2413.352295	6.435565
440.548889	1256.013184	19354.521484	2414.987061	6.403698
440.906708	1260.396973	19236.972656	2397.005615	6.322721
441.264496	1260.397095	19031.378906	2378.950195	6.294267
441.622223	1263.963623	18786.775391	2364.238281	6.279099
441.979950	1263.517822	18494.023438	2335.185791	6.219597
442.337616	1256.310425	18302.023438	2323.743408	6.262178
442.695251	1250.886353	18057.345703	2293.650635	6.204545
443.052887	1245.313599	17951.091797	2278.715820	6.185897
443.410461	1248.434326	18015.509766	2269.650879	6.090606
443.768005	1243.679077	18256.625000	2282.728271	6.107403
444.125458	1245.164917	18570.775391	2309.031494	6.140428
444.482941	1247.691284	18958.189453	2330.579346	6.114385
444.840393	1259.282593	19492.724609	2347.743164	5.969584
445.197754	1262.403198	19945.525391	2370.554199	5.931294
445.555084	1253.635376	20312.505859	2385.414795	5.938334
445.912415	1244.496216	20523.230469	2409.414307	6.042503
446.269714	1250.291870	20683.054688	2414.987061	5.993462
446.626953	1260.174194	20684.615234	2403.693115	5.887011
446.984161	1259.282471	20516.021484	2387.866455	5.860723
447.341309	1251.629272	20271.937500	2363.941162	5.848022
447.698456	1245.462280	19946.861328	2349.526367	5.903645
448.055542	1251.183472	19719.646484	2327.012695	5.825223
448.412598	1252.743774	19363.734375	2296.102783	5.760916
448.769653	1252.966675	19047.947266	2282.951172	5.788062
449.126617	1252.223755	18586.898438	2254.196045	5.780162
449.483582	1253.338379	18259.298828	2251.818359	5.871353
449.840515	1252.520996	17921.296875	2228.412842	5.854610
450.197388	1251.926636	17699.427734	2216.524414	5.864707
450.554230	1249.326050	17601.126953	2204.190430	5.839506
450.911041	1250.737671	17560.927734	2203.521484	5.841648
451.267822	1240.929688	17654.773438	2214.369629	5.930603
451.624573	1239.740845	17689.472656	2216.152832	5.935732
451.981262	1235.134155	17668.814453	2210.654541	5.936104
452.337921	1246.502441	17487.888672	2190.146973	5.810123
452.694580	1240.781250	17152.634766	2166.815918	5.819779
453.051147	1250.812012	16908.177734	2149.726318	5.741159
453.407715	1251.926514	16541.939453	2138.358154	5.797455
453.764221	1259.876953	16433.011719	2141.776123	5.812241
454.120728	1255.567383	16111.281250	2119.782471	5.817392
454.477142	1258.167969	16022.340820	2112.426514	5.786024
454.833557	1261.140137	15867.867188	2090.730225	5.679507
455.189911	1258.242310	15871.656250	2085.083008	5.658094
455.546265	1251.183594	15969.140625	2080.476318	5.634564
455.902557	1252.000854	16033.414063	2079.658936	5.599317
456.258820	1256.681885	16287.082031	2093.999268	5.570826
456.615051	1263.666382	16556.875000	2114.358398	5.562548
456.971252	1265.969727	16917.763672	2133.602783	5.543346
457.327393	1256.979126	17501.412109	2168.673584	5.612350
457.683502	1254.081421	18184.994141	2206.122070	5.623091
458.039612	1245.982300	19151.599609	2259.099854	5.658099
458.395630	1254.675659	20081.574219	2310.220215	5.606577
458.751648	1249.994629	20897.044922	2349.006104	5.593773
459.107605	1247.765503	21627.365234	2390.244141	5.605991
459.463562	1244.496216	21835.935547	2391.507080	5.570329
459.819458	1243.976074	21726.931641	2381.104980	5.551586
460.175323	1251.406372	21124.337891	2340.535400	5.480465
460.531158	1250.812012	20404.939453	2301.898193	5.487518
460.886932	1258.539429	19627.287109	2263.409424	5.470541
461.242676	1250.291870	18891.392578	2227.521240	5.539503
461.598419	1252.743774	18337.615234	2203.595703	5.565462
461.954102	1246.651001	17802.560547	2174.468994	5.604150
462.309723	1252.520874	17331.109375	2142.815918	5.537147
462.665344	1258.836670	16943.472656	2111.014404	5.433201
463.020905	1254.304199	16746.869141	2097.937256	5.445406
463.376373	1247.765503	16744.638672	2092.216064	5.449167
463.731873	1235.431274	16764.476563	2101.206543	5.575200
464.087341	1237.066162	16807.720703	2099.200439	5.536918
464.442749	1244.050659	16906.916016	2104.104248	5.491036
464.798126	1248.805908	17034.494141	2111.163086	5.462905
465.153503	1255.047241	17222.998047	2122.828857	5.434521
465.508820	1255.195801	17382.824219	2138.060791	5.474239
465.864105	1249.771729	17480.976563	2145.788330	5.520333
466.219330	1238.329102	17697.421875	2152.550049	5.554503
466.574524	1227.555298	17726.845703	2161.689209	5.661661
466.929657	1228.892700	17636.197266	2153.887451	5.637701
467.284790	1236.991699	17456.828125	2138.506836	5.558103
467.639893	1243.307495	17228.201172	2122.011475	5.497090
467.994934	1240.558228	17074.171875	2105.144775	5.460450
468.349945	1237.586304	16829.642578	2103.732666	5.555049
468.704926	1237.957642	16687.500000	2094.296387	5.542810
469.059875	1239.443726	16530.498047	2101.132568	5.635248
469.414764	1241.672729	16466.003906	2092.587646	5.589178
469.769653	1241.969971	16412.505859	2085.157227	5.558058
470.124451	1244.199097	16493.568359	2078.024170	5.467932
470.479248	1245.908081	16523.662109	2080.624756	5.463609
470.834015	1250.217529	16594.767578	2088.278076	5.461617
471.188721	1251.555054	16795.906250	2087.534912	5.378030
471.543365	1250.217529	17069.416016	2101.429688	5.380880
471.898010	1241.152588	17352.064453	2105.144531	5.362775
472.252625	1244.793457	17588.716797	2133.231201	5.435890
472.607178	1236.768799	17799.068359	2145.639648	5.487589
472.961700	1239.443726	17862.447266	2155.150635	5.508673
473.316193	1239.666626	17940.169922	2150.915283	5.456414
473.670654	1253.189575	17961.345703	2146.457031	5.346296
474.025055	1255.121460	18098.435547	2151.286865	5.320600
474.379456	1251.852173	18159.363281	2157.156494	5.354450
474.733795	1241.895630	18269.404297	2170.382568	5.452865
475.088104	1243.678833	18545.513672	2185.465820	5.443278
475.442383	1253.115234	18882.998047	2210.431641	5.430078
475.796570	1253.263916	19190.759766	2221.800049	5.399506
476.150787	1244.867798	19580.921875	2242.307373	5.439772
476.504944	1231.790405	19960.607422	2245.502686	5.412580
476.859070	1235.282715	20361.396484	2264.969971	5.383672
477.213135	1242.861694	20637.951172	2282.059570	5.358046
477.567200	1249.697388	20909.232422	2301.749756	5.351359
477.921173	1253.263916	21158.888672	2315.792969	5.337833
478.275146	1253.784180	21393.312500	2331.990967	5.353685
478.629089	1256.310303	21668.531250	2347.446045	5.345502
478.983002	1250.886230	22130.546875	2370.628418	5.362837
479.336823	1248.954468	22651.037109	2393.513428	5.347886
479.690643	1242.490112	23352.603516	2428.881592	5.365832
480.044403	1246.428101	24246.240234	2477.698486	5.353393
480.398163	1246.279541	25445.265625	2543.753418	5.361687
480.751862	1247.617065	27115.216797	2628.235596	5.337250
481.105499	1247.691284	29357.822266	2734.117188	5.287866
481.459137	1248.657227	32655.525391	2907.836914	5.282856
481.812744	1246.873901	37012.121094	3143.153564	5.302018
482.166290	1247.839844	42177.199219	3435.609131	5.345232
482.519806	1245.982300	47278.675781	3727.841797	5.391514
482.873291	1249.846069	51445.269531	4001.944580	5.482768
483.226715	1252.669556	54138.000000	4188.593262	5.551490
483.580139	1254.601440	55107.875000	4270.920898	5.600996
483.933502	1255.715942	54493.839844	4228.567871	5.584066
484.286804	1251.480835	52532.843750	4093.857178	5.542708
484.640106	1253.041016	49733.484375	3917.016357	5.494948
484.993347	1253.486938	46826.984375	3728.882080	5.431655
485.346558	1256.904907	44675.324219	3599.966797	5.396470
485.699738	1250.663452	43699.281250	3525.218506	5.358373
486.052887	1250.737793	43888.457031	3542.307861	5.374514
486.405975	1242.490112	44789.082031	3583.694580	5.376321
486.759064	1247.096802	45903.175781	3637.489502	5.352894
487.112061	1244.124634	46471.074219	3661.340820	5.344637
487.464996	1251.777832	46198.980469	3656.213867	5.349468
487.817963	1256.681763	44921.792969	3606.728271	5.381978
488.170868	1256.830444	43077.375000	3493.788086	5.348944
488.523743	1253.263916	40840.121094	3362.569580	5.328298
488.876587	1248.731445	38910.253906	3239.821533	5.286802
489.229401	1254.081177	37600.222656	3187.660889	5.319904
489.582153	1256.161743	37364.312500	3164.849854	5.286031
489.934845	1256.161743	37990.238281	3197.320313	5.284354
490.287537	1261.288696	39260.664063	3254.012939	5.244097
490.640198	1264.260620	40621.292969	3342.433594	5.280309
490.992798	1260.025391	41356.371094	3380.327881	5.288020
491.345337	1244.050415	41163.707031	3377.281494	5.343811
491.697876	1234.391113	39805.300781	3318.879639	5.404302
492.050354	1243.976196	37794.453125	3219.759766	5.405630
492.402832	1258.613647	35130.031250	3078.733154	5.373615
492.755219	1269.684814	32380.755859	2930.870361	5.339532
493.107605	1262.700317	29854.015625	2807.676758	5.403656
493.459930	1254.378540	27942.650391	2707.665283	5.445414
493.812225	1251.926514	26629.500000	2626.006836	5.414546
494.164490	1256.979126	25831.193359	2574.292236	5.360550
494.516724	1258.762329	25434.267578	2541.524658	5.306041
494.868896	1250.812012	25416.656250	2543.976318	5.351207
495.221039	1249.251587	25633.177734	2549.400635	5.331992
495.573120	1250.812012	25893.531250	2568.719482	5.348060
495.925201	1261.808716	26186.583984	2582.688232	5.299464
496.277222	1261.883179	26423.531250	2602.304199	5.327239
496.629211	1259.133911	26528.896484	2595.319824	5.287687
496.981140	1251.703613	26411.498047	2583.059814	5.291602
497.333069	1255.270142	26056.478516	2566.118896	5.285423
497.684967	1247.691284	25622.552734	2562.477783	5.394027
498.036804	1244.496216	25087.125000	2533.945557	5.408168
498.388580	1241.821411	24592.568359	2507.642578	5.420902
498.740326	1249.846069	24114.203125	2477.847168	5.370810
499.092072	1248.508545	23647.880859	2464.844238	5.430222
499.443756	1245.833618	23216.626953	2446.565674	5.465128
499.795410	1244.124634	22839.541016	2430.367432	5.493031
500.147003	1249.177368	22519.962891	2404.807373	5.432945
500.498566	1251.109253	22217.626953	2386.157471	5.413623
500.850098	1252.892456	22021.916016	2373.377441	5.394981
501.201599	1254.527222	21890.250000	2364.609863	5.379422
501.553009	1254.527222	21842.771484	2360.671875	5.372700
501.904449	1252.520874	21802.423828	2361.489014	5.396464
502.255859	1246.873901	21864.169922	2370.256592	5.448739
502.607178	1243.753174	21926.880859	2379.693115	5.492109
502.958405	1239.815063	22007.796875	2383.705566	5.507952
503.309692	1236.991699	22022.583984	2391.284424	5.553331
503.660919	1238.403442	22146.966797	2395.371094	5.533463
504.012115	1242.638672	22140.798828	2395.296875	5.515596
504.363251	1250.960571	22144.884766	2387.866455	5.441323
504.714294	1251.629395	21995.908203	2381.253662	5.445474
505.065369	1257.945068	21957.568359	2382.368164	5.432095
505.416443	1267.084229	21841.134766	2368.919189	5.355460
505.767395	1271.542480	21802.351563	2359.036865	5.296890
506.118317	1263.517700	21741.496094	2349.303467	5.302212
506.469238	1253.709839	21892.478516	2367.136230	5.394829
506.820160	1254.527100	22043.537109	2380.287842	5.415173
507.170929	1253.041138	22290.818359	2389.426758	5.401643
507.521729	1257.127808	22496.931641	2401.315430	5.386997
507.872498	1249.697388	22754.984375	2412.460938	5.406873
508.223236	1253.858398	23027.750000	2426.875732	5.387266
508.573883	1249.920288	23265.443359	2440.101563	5.406100
508.924500	1257.647827	23507.896484	2460.906250	5.407843
509.275116	1257.053345	23678.197266	2471.605957	5.416996
509.625702	1252.966797	23910.541016	2479.779053	5.414579
509.976196	1252.000854	24030.466797	2472.200195	5.356811
510.326660	1250.886230	24222.835938	2477.549805	5.339832
510.677124	1264.409302	24386.451172	2478.738770	5.251826
511.027557	1258.093628	24634.322266	2495.828369	5.294844
511.377869	1266.861450	24803.361328	2508.905518	5.277098
511.728180	1262.774780	24825.578125	2525.697998	5.359818
512.078430	1262.923340	24799.650391	2524.137695	5.358495
512.428650	1255.790405	24692.654297	2521.017090	5.398447
512.778931	1247.022583	24548.802734	2506.379639	5.404553
513.129028	1249.251587	24353.755859	2494.788086	5.390882
513.479126	1254.824341	24167.849609	2483.791260	5.363617
513.829285	1254.527222	24032.099609	2474.354736	5.355389
514.179382	1254.824341	23919.458984	2475.469482	5.385682
514.529297	1249.251587	23883.125000	2485.128662	5.460299
514.879272	1247.394043	23994.726563	2490.998779	5.467036
515.229187	1245.536499	24138.279297	2497.017334	5.466714
515.579163	1245.239258	24565.890625	2505.784912	5.405276
515.928955	1248.359985	25105.476563	2540.038574	5.414227
516.278748	1248.657227	25856.453125	2583.505859	5.424495
516.628540	1251.406372	26615.677734	2627.418457	5.425002
516.978333	1255.418823	27507.460938	2674.006104	5.403721
517.327942	1255.864624	28407.119141	2736.197510	5.452171
517.677612	1257.647827	29184.326172	2787.466553	5.477983
518.027222	1258.093628	29651.986328	2818.970703	5.497228
518.376831	1255.715942	29800.888672	2799.949463	5.409789
518.726379	1248.805908	29587.494141	2791.850342	5.445010
519.075867	1245.165039	29020.115234	2759.751709	5.453067
519.425293	1247.542847	28275.826172	2747.343018	5.549003
519.774658	1249.846069	27500.404297	2698.674561	5.519229
520.124084	1252.000854	26850.476563	2670.513916	5.541397
520.473389	1251.035034	26358.146484	2629.350342	5.489741
520.822693	1251.109253	26057.369141	2620.805664	5.521576
521.171997	1244.347656	25904.603516	2600.223633	5.498223
521.521240	1240.706909	25890.115234	2602.007080	5.522648
521.870361	1236.917358	25969.765625	2596.137207	5.495606
522.219482	1238.106323	26175.509766	2619.468018	5.539316
522.568604	1243.307495	26469.005859	2636.111816	5.521370
522.917664	1249.474731	26907.912109	2664.644043	5.515415
523.266724	1256.013306	27573.146484	2693.622314	5.462636
523.615662	1258.019409	28453.333984	2742.959229	5.460278
523.964600	1260.917236	29579.466797	2794.897217	5.416873
524.313538	1263.443481	30792.978516	2868.010742	5.433771
524.662354	1255.641724	32131.765625	2938.747070	5.451155
525.011169	1256.533325	33444.250000	3017.210938	5.470029
525.359985	1251.183472	34770.035156	3075.760986	5.443437
525.708740	1261.363037	36142.183594	3140.924805	5.388525
526.057434	1250.514893	37824.097656	3223.251953	5.393885
526.406067	1247.839966	39926.792969	3336.489502	5.399964
526.754700	1239.889526	42777.562500	3495.348877	5.429913
527.103333	1248.508667	46056.542969	3691.136475	5.451317
527.451782	1246.576782	49562.589844	3911.072510	5.514726
527.800293	1250.366333	52148.699219	4103.813965	5.606172
528.148743	1246.874023	53610.750000	4236.221191	5.708797
528.497131	1254.081299	53559.925781	4252.047363	5.731608
528.845642	1250.143188	52255.390625	4152.110840	5.689548
529.193909	1246.799683	49807.265625	3971.406250	5.610750
529.542175	1246.502441	46423.519531	3754.813721	5.552185
529.890503	1245.462280	42848.816406	3550.852783	5.541358
530.238770	1247.171143	39608.550781	3367.993896	5.528536
530.586914	1243.381714	37406.964844	3240.936279	5.523664
530.934998	1246.576782	36253.558594	3155.190674	5.452095
531.283142	1239.072266	36207.042969	3140.181641	5.436717
531.631226	1237.883423	36926.816406	3170.868408	5.416203
531.979248	1228.966919	38191.453125	3246.434570	5.458149
532.327148	1240.484009	39443.378906	3320.514404	5.444693
532.675110	1241.747192	40369.265625	3384.860596	5.477253
533.023071	1252.372437	40571.289063	3400.018311	5.462119
533.370850	1249.994507	39916.832031	3353.281982	5.439513
533.718689	1256.087402	38631.472656	3273.703857	5.398249
534.066467	1253.784058	36898.730469	3178.447510	5.399541
534.414246	1255.270142	35308.800781	3103.030029	5.426045
534.761963	1256.904785	34026.332031	3040.244385	5.442084
535.109619	1260.174072	33406.949219	3010.597656	5.445098
535.457153	1260.322754	33177.875000	3007.922852	5.475358
535.804749	1251.852173	33210.792969	3005.248047	5.486402
536.152344	1247.394165	33158.035156	2995.663086	5.478640
536.499817	1244.942139	32850.050781	2970.325439	5.459191
536.847229	1246.353882	32157.025391	2944.245361	5.492898
537.194641	1253.858398	31208.107422	2898.029297	5.488940
537.542114	1256.161743	30266.841797	2842.822266	5.469229
537.889404	1254.824341	29612.382813	2793.113525	5.424618
538.236694	1248.211426	29273.341797	2766.810547	5.418705
538.583984	1244.570679	29430.865234	2778.030029	5.440443
538.931213	1250.589111	30163.265625	2810.351807	5.394737
539.278381	1258.093628	31669.382813	2873.137695	5.310673
539.625488	1264.335083	33707.503906	2971.440186	5.261832
539.972595	1264.855103	36317.238281	3105.036377	5.249804
540.319641	1266.489746	38767.667969	3255.499268	5.303859
540.666687	1261.511475	40710.015625	3360.266357	5.320240
541.013611	1256.458984	41757.609375	3428.475830	5.362853
541.360596	1251.257813	41828.199219	3449.875000	5.418391
541.707458	1254.452881	41045.937500	3418.222412	5.437770
542.054260	1251.183472	39525.703125	3335.077393	5.444599
542.401062	1250.812012	37709.300781	3226.669922	5.419473
542.747864	1251.777954	35774.457031	3111.946533	5.388251
543.094666	1254.155640	33857.152344	3006.659912	5.375286
543.441284	1250.960571	32077.748047	2897.508789	5.341290
543.787903	1247.765503	30613.833984	2827.143799	5.378242
544.134460	1248.434326	29362.353516	2758.191406	5.370141
544.481079	1250.440552	28484.468750	2728.990234	5.429053
544.827637	1252.000854	27888.710938	2692.061768	5.406301
545.174072	1252.372437	27566.013672	2685.374756	5.445854
545.520508	1252.075195	27459.240234	2668.508057	5.404755
545.866943	1248.805786	27341.541016	2673.189209	5.458927
546.213318	1245.685181	27249.109375	2669.845459	5.476818
546.559631	1248.657227	26931.837891	2655.653564	5.478280
546.905823	1246.353760	26427.546875	2619.468018	5.452936
547.252136	1247.988403	25667.578125	2572.211426	5.422790
547.598389	1243.010132	24776.318359	2519.159424	5.422736
547.944458	1241.747070	23822.119141	2464.100830	5.413347
548.290588	1245.462280	22876.171875	2407.408203	5.371742
548.636658	1242.861694	22007.724609	2355.322021	5.357417
548.982727	1245.685181	21283.939453	2317.650391	5.349594
549.328735	1241.078369	20729.937500	2290.975830	5.387167
549.674622	1245.982300	20311.242188	2272.028564	5.381759
550.020569	1250.514771	20068.197266	2261.997803	5.375174
550.366455	1249.994751	19921.304688	2256.202148	5.389056
550.712280	1253.189697	19910.974609	2262.517822	5.409689
551.058044	1257.424927	19980.669922	2258.282471	5.345535
551.403748	1267.530151	20109.511719	2264.598389	5.291738
551.749512	1265.969727	20292.666016	2260.288818	5.225916
552.095154	1255.715942	20462.523438	2273.514648	5.299156
552.440735	1247.245483	20563.351563	2275.892334	5.325333
552.786316	1245.313599	20558.001953	2280.424805	5.359747
553.131897	1250.291870	20362.289063	2277.155518	5.372874
553.477417	1256.830566	20059.060547	2250.332275	5.283957
553.822815	1263.071899	19630.482422	2233.688477	5.284450
554.168213	1258.242188	19239.650391	2212.512207	5.306982
554.513672	1253.412598	18890.873047	2204.041748	5.389830
554.859009	1246.130981	18620.039063	2195.051025	5.461753
555.204285	1252.223755	18383.013672	2184.574463	5.442544
555.549500	1256.161865	18188.638672	2168.079102	5.385611
555.894714	1260.099854	18051.326172	2150.469482	5.302588
556.239990	1254.824341	17964.169922	2129.144531	5.232522
556.585022	1263.740601	17873.966797	2132.265381	5.228856
556.930115	1264.037842	17757.830078	2123.497559	5.210807
557.275146	1265.375366	17602.462891	2121.268555	5.238958
557.620178	1248.657227	17508.693359	2121.788330	5.369798
557.965149	1252.372437	17403.111328	2111.534912	5.319648
558.310059	1253.486938	17393.376953	2103.881592	5.268900
558.654968	1259.802612	17378.365234	2089.763916	5.149103
558.999756	1249.697388	17416.185547	2093.405029	5.218868
559.344604	1245.016479	17444.642578	2100.760742	5.282494
559.689331	1242.861694	17478.080078	2100.166260	5.280524
560.033997	1241.821411	17521.623047	2104.624512	5.299838
560.378723	1250.514893	17603.578125	2106.853516	5.236564
560.723389	1254.229980	17633.150391	2120.525146	5.289086
561.067932	1253.189697	17696.457031	2122.605713	5.287368
561.412476	1245.759399	17657.447266	2114.729736	5.294826
561.757019	1241.821289	17609.224609	2096.228271	5.220174
562.101501	1241.375610	17520.804688	2091.770508	5.223739
562.445862	1236.025757	17426.068359	2098.606201	5.327845
562.790222	1239.592285	17377.251953	2101.429688	5.340535
563.134644	1248.731567	17366.255859	2104.847412	5.311708
563.478943	1248.582886	17462.476563	2097.565918	5.236145
563.823181	1244.421997	17609.818359	2101.949463	5.239882
564.167358	1237.957642	17818.089844	2120.079590	5.320355
564.511536	1247.914185	18120.798828	2130.110596	5.228486
564.855774	1259.356812	18493.949219	2143.039063	5.127376
565.199768	1269.387695	18876.162109	2150.617920	5.005064
565.543823	1264.632324	19163.119141	2173.354736	5.077091
565.887817	1254.155640	19367.228516	2181.156250	5.117854
566.231812	1244.644897	19368.564453	2180.190674	5.161940
566.575745	1246.205200	19251.091797	2171.422852	5.138703
566.919617	1242.564453	19028.779297	2170.456787	5.216918
567.263428	1247.171265	18732.236328	2153.738525	5.184809
567.607239	1250.514771	18501.525391	2140.141357	5.156954
567.950989	1253.412598	18272.376953	2120.302490	5.093670
568.294678	1248.954468	18184.402344	2113.986816	5.107821
568.638367	1251.257813	18099.548828	2112.203369	5.109987
568.981995	1253.784180	18108.984375	2126.989746	5.180630
569.325623	1258.985352	18176.822266	2126.915283	5.130266
569.669128	1257.202026	18287.013672	2135.980469	5.160235
570.012573	1251.480713	18489.562500	2133.974121	5.119441
570.356140	1248.582886	18772.359375	2149.949219	5.143676
570.699524	1248.731445	19069.570313	2149.800537	5.056266
571.042908	1255.195801	19384.539063	2165.181396	5.019407
571.386230	1256.384766	19561.306641	2176.103760	5.024436
571.729492	1255.938843	19673.429688	2187.026123	5.055451
572.072815	1251.109253	19613.318359	2177.218506	5.043561
572.416016	1249.623169	19512.042969	2175.435059	5.069492
572.759094	1245.387817	19349.244141	2164.958252	5.079418
573.102234	1245.982300	19138.001953	2156.042236	5.086401
573.445374	1251.034912	18966.662109	2132.116699	4.973472
573.788391	1253.858398	18833.808594	2116.884521	4.909150
574.131409	1255.270142	18778.824219	2118.296143	4.924948
574.474365	1246.130981	18721.091797	2116.512939	4.980738
574.817261	1248.137207	18619.740234	2115.027100	4.990270
575.160156	1249.177368	18445.056641	2093.776367	4.911636
575.502930	1248.359985	18195.029297	2083.225342	4.926427
575.845703	1248.805786	17890.609375	2077.132568	4.977386
576.188477	1251.480591	17490.634766	2069.553467	5.037657
576.531250	1259.431030	17103.220703	2046.965454	4.970619
576.873901	1257.127686	16727.177734	2017.170288	4.912994
577.216431	1248.434204	16437.025391	1998.891968	4.940931
577.559082	1247.988403	16096.125000	1987.300415	4.979157
577.901611	1243.604614	15794.307617	1979.127319	5.054894
578.244080	1246.353760	15466.409180	1967.164429	5.068972
578.586487	1250.886230	15246.992188	1956.539429	5.041782
578.928955	1256.607544	15013.011719	1961.666138	5.125312
579.271301	1257.127686	14839.812500	1945.319458	5.066685
579.613647	1249.697388	14628.644531	1923.920288	5.039432
579.955872	1243.307495	14475.135742	1895.090820	4.925875
580.298157	1250.440552	14383.074219	1892.267578	4.887268
580.640320	1243.530396	14329.577148	1889.221069	4.934192
580.982483	1246.725342	14281.280273	1886.323242	4.906941
581.324524	1238.700684	14227.633789	1892.267456	5.031720
581.666626	1250.217529	14175.992188	1897.914429	5.010894
582.008728	1249.251587	14118.184570	1893.679077	5.007622
582.350647	1253.264038	14064.464844	1871.982788	4.829514
582.692566	1248.954468	13987.859375	1857.196411	4.774680
583.034424	1251.703735	13911.327148	1848.280273	4.712435
583.376343	1249.920410	13814.362305	1854.224487	4.809638
583.718201	1247.468384	13761.085938	1860.763062	4.901018
584.059937	1244.942139	13708.851563	1864.849609	4.973620
584.401611	1247.617065	13651.342773	1856.601929	4.909693
584.743347	1253.932739	13630.612305	1847.982910	4.799754
585.085022	1258.985352	13602.674805	1841.890137	4.722290
585.426514	1263.072021	13572.284180	1837.729126	4.668512
585.768127	1258.390991	13533.276367	1844.044922	4.771156
586.109619	1257.722168	13525.102539	1849.840454	4.826770
586.451172	1260.619995	13563.144531	1854.298706	4.825666
586.792542	1264.260864	13598.735352	1849.469116	4.744493
587.133850	1256.607544	13631.875000	1843.747681	4.744464
587.475220	1247.245483	13684.109375	1843.450562	4.793854
587.816589	1243.307373	13768.442383	1839.438110	4.759476
588.157776	1247.616943	13910.583008	1838.397949	4.665424
588.498962	1248.211426	14028.206055	1843.821899	4.660491
588.840210	1246.725464	14103.696289	1851.623901	4.704829
589.181335	1255.121460	14125.096680	1865.741577	4.744532
589.522400	1254.452759	14130.593750	1850.286499	4.627425
589.863403	1261.362915	14091.213867	1850.063477	4.588522
590.204407	1257.722168	14016.761719	1837.580566	4.544687
590.545410	1260.248413	13949.295898	1854.521484	4.683354
590.886353	1254.155640	13831.452148	1847.537109	4.717877
591.227112	1252.446655	13721.854492	1838.026489	4.696132
591.567932	1248.583008	13612.777344	1830.447632	4.706046
591.908752	1251.852173	13563.514648	1821.159668	4.624132
592.249512	1252.223755	13603.340820	1821.976929	4.612969
592.590149	1254.229980	13621.324219	1812.986328	4.518089
592.930786	1253.189575	13723.862305	1825.766479	4.591387
593.271423	1250.886353	13840.070313	1831.636230	4.613086
593.612000	1250.440552	14035.859375	1833.568237	4.560881
593.952576	1248.805786	14188.699219	1827.698364	4.473704
594.292969	1242.638672	14308.622070	1833.196777	4.519814
594.633484	1238.700806	14441.104492	1846.719849	4.605366
594.973877	1240.558350	14665.647461	1866.261353	4.660699
595.314209	1248.954468	14936.852539	1875.177734	4.575014
595.654480	1249.994751	15278.348633	1888.180664	4.549257
595.994812	1245.833740	15612.637695	1906.682129	4.599829
596.335022	1245.313599	15911.557617	1917.456055	4.582922
596.675171	1248.657227	15991.878906	1918.570679	4.543874
597.015320	1254.750000	15894.541992	1902.000977	4.421176
597.355408	1249.325806	15575.782227	1888.106445	4.458748
597.695496	1252.446655	15162.510742	1867.450195	4.421285
598.035461	1250.366089	14664.532227	1841.815796	4.409142
598.375366	1250.812012	14204.823242	1818.039063	4.378775
598.715271	1243.604614	13797.198242	1800.800781	4.438539
599.055176	1241.672729	13434.155273	1785.420044	4.459693
599.395081	1243.678955	13166.367188	1774.869141	4.455288
599.734802	1252.744019	12937.886719	1767.215942	4.402787
600.074524	1247.765625	12822.495117	1762.906372	4.450564
600.414246	1247.542725	12764.018555	1761.271606	4.460817
600.753906	1241.672852	12813.578125	1761.494507	4.492101
601.093506	1247.022583	12886.618164	1766.101440	4.459595
601.433044	1249.920288	13037.898438	1775.017578	4.454515
601.772583	1250.737671	13253.153320	1782.299316	4.428789
602.112122	1255.641724	13591.082031	1796.342407	4.383311
602.451538	1251.034912	13954.496094	1799.463257	4.317157
602.790894	1255.195801	14350.679688	1817.964844	4.297428
603.130310	1250.143188	14791.590820	1838.026367	4.341362
603.469604	1256.979126	15165.260742	1869.679321	4.405291
603.808838	1257.870728	15540.489258	1884.391113	4.386593
604.148010	1248.657227	15805.750000	1890.855591	4.411584
604.487305	1241.970093	15943.877930	1892.639038	4.425745
604.826416	1233.127930	15860.659180	1885.282837	4.458407
605.165527	1243.901855	15549.182617	1865.890015	4.347962
605.504456	1241.821411	15174.622070	1843.450562	4.318078
605.843445	1244.793457	14659.036133	1826.658203	4.337664
606.182434	1246.874023	14173.690430	1815.289673	4.397182
606.521423	1251.109131	13695.997070	1800.057739	4.411037
606.860229	1253.486816	13355.691406	1788.243530	4.418672
607.199036	1254.378540	13141.105469	1774.497559	4.375628
607.537903	1257.870728	13116.510742	1761.568848	4.247520
607.876648	1262.254517	13235.916992	1765.061035	4.199271
608.215271	1262.774658	13428.210938	1770.931030	4.177050
608.553955	1260.099731	13680.765625	1780.590332	4.190521
608.892578	1252.892456	13882.422852	1775.760742	4.140045
609.231140	1254.155640	14027.165039	1777.321167	4.095867
609.569641	1252.818237	13994.100586	1786.609009	4.189459
609.908081	1254.824341	13873.135742	1780.070313	4.162570
610.246521	1249.697388	13612.109375	1774.051636	4.241520
610.584961	1253.709839	13290.601563	1755.698853	4.170421
610.923340	1252.669556	12913.070313	1745.296753	4.224788
611.261597	1250.960571	12525.507813	1731.030396	4.257997
611.599854	1239.889526	12214.030273	1714.386719	4.323775
611.938110	1247.394043	11922.168945	1703.464233	4.272410
612.276245	1253.709839	11705.575195	1687.489136	4.150257
612.614319	1265.672485	11482.073242	1682.287964	4.077909
612.952393	1256.533325	11338.520508	1674.188843	4.142591
613.290466	1257.350708	11227.958008	1667.204468	4.110620
613.628479	1250.589233	11098.671875	1654.350098	4.099893
613.966370	1254.750122	10988.257813	1649.223145	4.052732
614.304260	1249.325928	10858.004883	1648.628784	4.155648
614.642151	1250.068970	10809.485352	1649.966187	4.183281
614.979980	1245.685059	10774.042969	1654.127075	4.286594
615.317749	1241.375488	10756.061523	1650.040527	4.295098
615.655396	1246.279541	10720.098633	1648.331421	4.243820
615.993164	1253.338257	10683.467773	1629.904419	3.993223
616.330811	1256.161987	10707.468750	1631.687622	3.973267
616.668396	1253.338379	10714.898438	1630.201782	3.983100
617.005859	1247.914185	10750.860352	1637.409180	4.098676
617.343445	1244.347656	10736.668945	1650.635132	4.280170
617.680908	1245.685181	10736.149414	1655.613281	4.319368
618.018311	1254.750122	10712.075195	1660.739868	4.292860
618.355652	1269.090454	10685.176758	1640.083862	3.939996
618.692993	1270.502319	10639.035156	1630.498901	3.842614
619.030273	1264.557983	10625.661133	1623.068726	3.829792
619.367554	1259.654053	10604.781250	1625.074829	3.910282
619.704712	1262.849121	10605.895508	1628.715820	3.915925
620.041870	1256.161743	10560.200195	1633.025269	4.050537
620.379028	1248.657227	10483.222656	1633.025269	4.162275
620.716064	1240.186646	10453.204102	1631.019043	4.242176
621.053040	1248.359985	10453.798828	1630.944702	4.156073
621.389954	1247.914185	10465.909180	1638.300659	4.235047
621.726929	1247.171021	10421.476563	1639.638184	4.277895
622.063843	1238.031982	10366.046875	1635.180054	4.350870
622.400635	1245.016357	10354.529297	1621.136719	4.128875
622.737427	1254.081421	10373.403320	1621.285278	4.026657
623.074219	1261.140137	10390.121094	1618.387695	3.913335
623.410889	1258.539429	10438.268555	1628.790039	4.033350
623.747559	1254.601440	10481.661133	1630.276001	4.071444
624.084167	1254.898560	10567.407227	1636.071655	4.093130
624.420715	1256.087524	10676.112305	1641.792969	4.094527
624.757324	1255.195923	10819.961914	1642.090210	4.044995
625.093750	1255.641724	11003.340820	1647.885742	4.023965
625.430176	1255.344482	11225.133789	1655.761719	4.016306
625.766602	1256.087524	11426.941406	1665.272583	4.023114
626.102905	1252.149414	11590.629883	1671.439819	4.055629
626.439209	1246.725464	11670.729492	1669.433594	4.055142
626.775452	1246.428101	11743.543945	1676.046509	4.092728
627.111694	1247.394043	11729.352539	1683.030884	4.156063
627.447876	1249.177246	11648.883789	1688.009277	4.219657
627.783997	1243.827515	11503.027344	1683.253906	4.283242
628.120056	1242.935913	11356.799805	1672.628540	4.248550
628.456055	1241.821411	11191.996094	1655.761719	4.160131
628.792053	1249.251587	10993.980469	1645.879517	4.070179
629.128052	1252.297974	10804.953125	1634.436890	4.000342
629.463928	1249.474487	10646.540039	1640.307007	4.159091
629.799744	1242.638672	10524.757813	1639.043579	4.270629
630.135559	1239.072266	10407.657227	1638.895142	4.360792
630.471375	1245.610840	10281.936523	1632.727905	4.284009
630.807068	1248.657227	10218.258789	1633.991211	4.295999
631.142700	1257.202026	10168.624023	1633.322266	4.220654
631.478333	1260.694214	10122.036133	1629.384399	4.160659
631.813965	1255.195923	10065.789063	1622.771484	4.171973
632.149475	1247.096802	10018.607422	1624.183228	4.298991
632.484924	1243.010254	10005.604492	1614.672485	4.241464
632.820435	1247.468384	9991.338867	1604.938843	4.088241
633.155884	1244.421997	9992.452148	1604.938843	4.121120
633.491150	1242.564453	10014.372070	1611.923218	4.210749
633.826477	1247.765625	10008.353516	1620.393555	4.253458
634.161804	1249.474609	10014.817383	1615.489746	4.175708
634.497009	1254.229858	9971.053711	1619.799194	4.193836
634.832153	1245.908081	9906.039063	1618.759155	4.305375
635.167297	1250.960571	9802.833008	1614.598145	4.252140
635.502380	1251.629395	9727.935547	1602.115234	4.134889
635.837463	1254.675781	9646.500000	1597.137085	4.080892
636.172424	1252.744019	9571.454102	1595.056519	4.114971
636.507324	1251.480835	9472.185547	1592.976074	4.154087
636.842224	1251.629517	9395.133789	1587.254761	4.121386
637.177124	1254.898804	9276.100586	1581.830566	4.075845
637.511963	1251.406616	9199.866211	1574.474609	4.064536
637.846741	1256.236084	9121.550781	1571.576782	4.009257
638.181396	1252.149536	9072.659180	1581.682007	4.213696
638.516113	1254.006958	8996.127930	1587.774902	4.311066
638.850769	1252.966675	8911.497070	1586.883301	4.360062
639.185303	1256.830444	8816.834961	1577.298218	4.238989
639.519836	1256.904785	8743.275391	1578.338379	4.293584
639.854370	1253.412598	8696.316406	1581.459106	4.407507
640.188843	1252.223755	8664.216797	1579.378540	4.413857
640.523254	1253.041016	8626.100586	1582.573730	4.469416
640.857605	1250.217651	8559.301758	1573.806030	4.427208
641.191895	1247.468384	8511.450195	1570.165161	4.442423
641.526184	1245.982300	8449.036133	1553.818359	4.273688
641.860413	1252.966797	8409.879883	1556.716309	4.244142
642.194580	1253.041016	8371.761719	1556.270508	4.259606
642.528748	1249.548828	8350.659180	1558.573853	4.351785
642.862793	1243.158813	8339.588867	1561.917480	4.491817
643.196838	1236.694458	8284.084961	1563.700806	4.640105
643.530823	1237.214478	8273.237305	1570.165039	4.732085
643.864746	1240.558228	8224.940430	1568.307617	4.692604
644.198669	1246.279419	8230.438477	1563.626465	4.543812
644.532532	1260.694214	8184.519043	1559.316895	4.312973
644.866333	1263.517700	8194.327148	1561.917480	4.305410
645.200073	1263.889282	8197.967773	1564.740845	4.338739
645.533813	1256.013184	8222.487305	1569.273438	4.496683
645.867554	1251.183594	8227.540039	1563.403442	4.475400
646.201172	1251.703613	8227.465820	1564.592407	4.485371
646.534729	1248.954468	8232.889648	1567.192993	4.556722
646.868225	1253.041016	8222.190430	1576.555054	4.642088
647.201782	1255.418823	8253.546875	1574.400391	4.558098
647.535217	1257.870850	8248.866211	1572.914185	4.506416
647.868591	1254.824341	8260.678711	1563.998047	4.413076
648.201965	1254.898804	8242.624023	1572.765747	4.548933
648.535278	1253.115479	8226.425781	1573.062988	4.588172
648.868591	1255.121582	8227.985352	1572.617188	4.553303
649.201782	1253.264038	8213.125977	1569.125000	4.538322
649.534912	1249.028687	8234.674805	1571.131226	4.610920
649.868103	1245.759399	8216.766602	1579.824585	4.792208
650.201172	1247.839844	8218.252930	1584.431274	4.828859
650.534180	1258.316528	8181.621094	1589.038086	4.776932
650.867188	1259.431030	8175.230957	1588.815063	4.762776
651.200134	1254.081177	8176.791504	1594.387817	4.915801
651.533020	1245.536499	8199.231445	1594.536499	5.018915
651.865845	1251.852173	8199.602539	1603.750000	5.064918
652.198608	1253.784058	8173.225098	1596.616821	4.954631
652.531433	1250.514771	8108.507324	1588.889282	4.934017
652.864136	1250.291870	8068.829590	1579.230103	4.824176
653.196777	1358.253784	8126.636719	1629.904419	4.013524
653.529358	1368.804688	8079.529297	1633.916870	3.950575
653.861938	1362.191772	8018.303223	1635.477173	4.105782
654.194519	1256.087524	7830.020996	1575.366211	4.856737
654.526978	1255.047241	7773.476563	1578.041138	4.955088
654.859375	1257.796509	7716.931641	1583.316772	5.039688
655.191833	1255.270142	7706.975098	1595.873901	5.279283
655.524170	1242.044189	7728.152344	1592.381714	5.401351
655.856445	1236.768677	7763.668457	1580.344727	5.264000
656.188660	1239.295044	7790.342285	1579.824585	5.198093
656.520874	1246.873901	7819.841309	1580.938965	5.082409
656.853088	1251.555054	7870.738281	1594.016113	5.173766
657.185181	1254.898560	7953.066406	1601.966431	5.181534
657.517212	1254.006958	8071.356934	1609.248413	5.210844
657.849243	1253.264038	8231.627930	1619.873535	5.253517
658.181274	1250.663452	8452.158203	1632.579468	5.303288
658.513123	1250.589111	8646.310547	1651.006470	5.414176
658.844971	1247.022583	8803.981445	1668.764771	5.580845
659.176819	1248.582886	8901.911133	1673.297363	5.549409
659.508667	1248.508667	8978.071289	1682.510742	5.614834
659.840393	1249.697388	8975.991211	1678.126953	5.545085
660.172058	1254.973022	8880.289063	1671.959595	5.468450
660.503662	1251.480835	8719.499023	1664.306641	5.527916
660.835266	1254.081421	8546.893555	1654.275757	5.487517
661.166931	1245.982300	8381.569336	1656.950684	5.759419
661.498413	1246.725464	8228.133789	1645.508179	5.712067
661.829773	1241.672729	8048.470215	1633.248047	5.752710
662.161194	1242.564453	7841.908691	1615.563965	5.652070
662.492615	1240.855469	7666.108887	1605.756226	5.679165
662.823975	1242.415894	7540.462891	1604.492798	5.749035
663.155212	1236.694580	7466.605957	1606.127563	5.929988
663.486450	1244.421997	7377.368652	1603.081177	5.848073
663.817627	1257.499146	7306.781250	1594.387695	5.569067
664.148743	1261.585815	7260.341797	1589.038086	5.458670
664.479858	1259.802612	7207.513184	1594.090698	5.620450
664.810913	1254.155640	7166.274902	1596.171265	5.784992
665.141907	1251.703613	7130.386719	1601.000854	5.941760
665.472778	1243.976196	7118.646484	1596.319702	5.997673
665.803711	1245.239380	7121.321777	1608.876953	6.188436
666.134583	1247.839966	7103.042969	1610.362915	6.191467
666.465454	1253.264038	7102.076660	1613.929321	6.166470
666.796143	1244.793457	7075.253418	1602.486816	6.134908
667.126831	1249.251587	7052.442871	1605.904663	6.145809
667.457458	1248.434326	7039.736816	1606.053345	6.175105
667.788147	1249.548706	7032.380859	1612.369141	6.274096
668.118774	1239.815063	7053.779785	1608.802612	6.346573
668.449219	1247.319824	7069.087402	1617.867554	6.364866
668.779663	1247.171265	7078.300293	1614.820923	6.304948
669.110107	1247.468384	7066.040527	1616.232788	6.337713
669.440552	1242.713013	7053.482910	1614.226563	6.393534
669.770874	1240.409668	7046.201172	1621.879883	6.570512
670.101135	1252.372437	7033.123535	1636.294556	6.641388
670.431396	1256.236206	7000.431152	1632.505005	6.550418
670.761597	1259.356812	6925.533691	1631.910645	6.575048
671.091797	1253.486938	6852.122559	1625.074829	6.637115
671.421875	1248.508667	6774.476074	1617.570313	6.678679
671.751892	1250.291870	6751.219238	1619.650757	6.714484
672.081909	1250.366211	6719.269531	1609.619751	6.569024
672.411865	1254.378540	6689.845215	1614.821167	6.631310
672.741821	1247.394165	6645.264160	1603.750000	6.601786
673.071716	1241.970093	6632.929688	1606.944946	6.770128
673.401550	1241.152710	6604.025879	1608.802612	6.855465
673.731262	1247.839966	6601.722656	1615.489746	6.866975
674.060974	1248.508667	6563.531250	1616.232788	6.918581
674.390625	1242.192993	6553.276855	1617.124390	7.059414
674.720276	1245.462280	6524.818848	1612.963379	6.961097
675.049927	1251.480835	6516.423340	1610.808716	6.824916
675.379395	1257.722168	6500.670410	1609.248413	6.704744
675.708923	1258.316528	6500.225098	1619.130493	6.883255
676.038330	1251.034912	6479.865723	1630.127441	7.250043
676.367737	1255.270142	6456.609375	1635.625854	7.312649
676.697083	1258.093750	6431.866699	1635.105835	7.286985
677.026428	1254.155640	6448.881348	1629.012817	7.216111
677.355652	1244.570557	6489.525391	1629.235840	7.334005
677.684875	1238.626343	6545.029785	1638.597778	7.537524
678.013977	1249.771606	6602.391113	1647.068359	7.422473
678.343079	1260.099731	6681.151855	1651.229126	7.215009
678.672180	1254.601440	6737.324219	1655.093140	7.304614
679.001221	1248.285645	6817.645996	1669.284790	7.559201
679.330139	1248.880005	6906.066406	1683.328003	7.679577
679.659058	1254.898560	6990.027832	1685.780151	7.513023
679.987976	1260.768555	7064.330566	1684.665527	7.304083
680.316772	1249.623169	7070.646484	1694.622070	7.644685
680.645630	1247.394043	7070.200684	1705.173218	7.861830
680.974304	1246.502441	7022.795410	1706.362183	7.961157
681.302979	1239.592285	7005.780762	1698.337402	7.955777
681.631653	1237.734741	6963.205078	1693.359009	7.957849
681.960266	1233.722290	6920.257813	1695.810913	8.126013
682.288757	1241.004028	6838.450684	1704.652954	8.283221
682.617249	1239.146484	6754.860840	1706.064819	8.465238
682.945679	1238.329102	6658.044434	1703.984375	8.591877
683.274109	1240.558228	6579.877441	1690.089844	8.419269
683.602478	1251.926392	6476.299316	1684.442749	8.278818
683.930725	1259.505371	6361.947266	1675.823608	8.159196
684.259033	1259.282593	6254.876953	1679.241577	8.406588
684.587280	1259.579712	6184.735840	1674.634766	8.427246
684.915344	1258.539551	6151.299316	1676.194946	8.536193
685.243469	1263.443481	6101.144531	1669.730835	8.398355
685.571533	1252.223877	6057.603027	1673.966187	8.776464
685.899536	1255.790405	6023.646973	1672.331421	8.736442
686.227539	1259.059570	6022.606934	1673.445923	8.699113
686.555420	1259.802612	6042.892090	1670.399414	8.584343
686.883301	1253.041138	6054.408203	1673.371704	8.754394
687.211121	1242.341431	6068.823730	1672.182739	8.905892
687.538940	1243.604736	6075.732910	1670.622437	8.837053
687.866638	1239.666626	6102.036621	1673.891724	8.930318
688.194336	1244.793579	6084.798340	1676.640991	8.922459
688.521973	1248.211426	6046.012207	1679.761719	8.994752
688.849609	1256.607544	5973.938965	1679.835938	8.971775
689.177063	1253.784058	5929.803223	1681.544922	9.147971
689.504578	1257.573608	5876.453125	1683.105103	9.212873
689.832031	1250.291992	5840.490723	1676.269531	9.280154
690.159485	1249.548950	5773.320801	1670.027954	9.294876
690.486816	1244.570557	5736.467285	1668.021851	9.427005
690.814087	1251.109253	5676.951172	1668.096069	9.421638
691.141296	1248.359985	5647.304688	1664.306641	9.455601
691.468506	1243.084473	5596.183594	1654.647339	9.454479
691.795715	1247.914185	5542.166016	1652.343872	9.417931
692.122803	1257.499146	5478.265625	1653.532837	9.382980
692.449829	1257.647827	5448.172852	1655.390259	9.491470
692.776855	1249.177246	5411.095703	1654.721680	9.744170
693.103821	1245.462158	5376.024902	1653.978516	9.890090
693.430664	1248.880249	5341.028320	1656.059082	9.950247
693.757568	1245.239258	5309.672363	1654.275757	10.063802
694.084351	1247.245483	5304.768555	1655.167480	10.053473
694.411133	1249.400269	5273.041016	1661.780396	10.248930
694.737854	1253.338257	5282.998047	1667.798950	10.285253
695.064575	1242.713013	5286.416016	1675.303589	10.697882
695.391174	1242.044312	5310.861816	1669.284790	10.500360
695.717773	1241.895630	5331.963379	1675.897827	10.611125
696.044250	1253.784180	5366.142578	1688.380737	10.568061
696.370789	1260.397095	5443.269043	1705.173218	10.633271
696.697205	1261.214355	5550.041504	1705.916138	10.368844
697.023621	1262.477539	5674.201660	1708.888306	10.118737
697.349915	1257.202026	5821.394531	1729.915894	10.357010
697.676208	1255.121460	6011.460938	1763.203491	10.682207
698.002380	1249.920410	6236.821777	1797.085571	10.972047
698.328674	1250.217529	6438.776855	1827.103882	11.118430
698.654724	1244.942017	6588.720215	1846.274048	11.252937
698.980896	1249.548828	6678.402832	1866.930054	11.372220
699.306946	1252.075195	6696.755859	1864.329468	11.244999
699.632935	1260.768555	6621.338379	1859.425659	11.167789
699.958862	1259.208374	6493.314941	1836.986206	11.038710
700.284729	1258.390991	6302.653809	1825.171997	11.236152
700.610596	1258.762573	6124.327637	1818.113281	11.496110
700.936340	1266.192749	5920.292480	1797.531372	11.416572
701.262146	1268.347534	5733.049316	1763.500854	11.090401
701.587830	1264.335083	5544.692871	1731.922241	10.924020
701.913513	1251.480713	5376.545410	1719.662231	11.349678
702.239075	1246.502319	5253.425293	1713.049194	11.643520
702.564697	1245.164917	5143.011230	1705.767578	11.816851
702.890137	1244.867676	5059.197754	1693.284668	11.756114
703.215698	1239.443726	4976.053223	1685.037109	11.925073
703.541016	1243.010376	4911.187012	1678.424194	11.870033
703.866455	1252.075317	4861.626953	1671.142578	11.609953
704.191711	1256.236206	4820.314941	1678.275513	11.841470
704.517029	1255.195923	4789.107422	1671.365356	11.776453
704.842163	1245.239380	4749.281738	1672.628540	12.197031
705.167419	1248.285645	4721.194824	1665.569702	12.015404
705.492493	1245.759399	4717.702148	1674.040161	12.335479
705.817566	1249.474609	4700.984375	1676.046387	12.358991
706.142578	1250.663452	4691.102051	1678.498413	12.435478
706.467590	1254.527222	4663.907227	1680.727539	12.500816
706.792480	1251.926636	4670.892090	1686.820313	12.720037
707.117371	1247.171143	4687.387207	1690.684082	12.892008
707.442200	1240.706787	4699.646973	1698.783203	13.243259
707.766907	1238.254883	4705.368652	1700.640625	13.336330
708.091675	1238.180542	4710.866699	1703.315552	13.394099
708.416321	1243.456055	4715.919434	1686.671875	12.763729
708.741028	1243.158813	4724.687012	1689.421021	12.817997
709.065552	1244.199097	4725.430176	1683.699707	12.624862
709.390137	1242.861572	4739.176270	1695.736694	12.952928
709.714600	1244.496216	4768.376953	1706.436401	13.108848
710.039063	1244.942017	4818.531250	1717.878906	13.234226
710.363403	1245.908081	4870.617676	1732.888062	13.435007
710.687744	1248.211426	4926.196289	1734.374146	13.218182
711.012085	1247.319824	4965.874512	1747.971558	13.463611
711.336304	1243.530396	4983.854980	1754.584473	13.663362
711.660461	1246.651001	4977.836426	1762.832031	13.834236
711.984619	1247.616943	4931.917480	1767.884766	14.121210
712.308716	1255.344360	4905.020020	1763.055054	13.911118
712.632751	1250.068970	4864.153809	1763.277954	14.200247
712.956726	1244.644897	4829.676270	1752.875366	14.176458
713.280701	1241.375610	4792.005371	1747.971313	14.267770
713.604553	1244.124756	4747.126465	1739.352173	14.137230
713.928467	1249.846191	4734.271973	1734.522827	13.909800
714.252258	1252.818237	4697.640625	1730.287476	13.860490
714.575989	1255.716064	4697.937988	1727.835571	13.715546
714.899719	1260.545532	4692.365723	1736.528931	13.869706
715.223267	1256.087524	4702.916504	1742.473145	14.111103
715.546936	1255.864624	4693.554199	1749.383179	14.356112
715.870422	1246.874023	4671.560547	1748.045776	14.634091
716.193970	1256.533325	4649.642090	1757.184937	14.754952
716.517395	1256.384644	4628.985352	1754.807251	14.778584
716.840820	1259.133789	4589.530273	1744.404907	14.570971
717.164124	1256.756104	4550.075684	1733.333984	14.471048
717.487488	1251.629272	4492.491211	1724.343384	14.586061
717.810730	1249.251587	4444.417480	1722.114258	14.799314
718.133972	1244.644897	4370.263184	1718.399048	15.157135
718.457092	1250.812012	4305.768555	1718.027466	15.293686
718.780212	1248.657349	4255.985840	1715.798462	15.533424
719.103210	1245.536621	4217.348145	1704.355835	15.439041
719.426208	1237.437378	4176.407227	1691.204468	15.439666
719.749207	1247.839844	4135.095215	1684.368530	15.119158
720.072083	1251.109131	4086.129883	1680.578979	15.148737
720.394958	1260.099731	4050.241455	1686.448853	15.280555
720.717773	1254.750122	4009.300781	1686.523071	15.674895
721.040527	1253.041138	3985.746826	1683.105103	15.737662
721.363281	1244.421997	3951.641602	1673.074341	15.833673
721.685913	1250.960571	3929.871094	1667.352905	15.543345
722.008545	1247.839966	3911.592529	1661.631836	15.534171
722.331055	1253.784058	3906.762695	1662.894897	15.420813
722.653503	1247.394043	3900.075439	1652.789673	15.282485
722.976013	1254.229858	3896.806396	1651.675171	15.040068
723.298401	1254.973022	3881.722900	1652.269531	15.125022
723.620789	1246.056519	3879.047852	1658.213867	15.653579
723.943115	1237.883179	3860.397705	1655.687500	15.931439
724.265381	1235.356934	3858.540283	1657.470825	16.091665
724.587585	1241.004028	3836.769775	1660.665894	16.167171
724.909790	1239.295044	3845.760498	1667.055786	16.411526
725.231873	1235.431274	3843.457031	1661.928833	16.353271
725.553894	1236.397339	3871.171875	1667.130005	16.347990
725.875916	1282.836548	3923.332275	1712.826172	16.284430
726.197937	1284.322510	3935.072266	1723.600220	16.571829
726.519775	1287.740479	3935.146484	1727.463989	16.609598
726.841675	1247.542603	3944.879883	1700.194946	16.781450
727.163513	1252.669556	3982.105469	1709.185547	16.725653
727.485291	1257.870728	4014.798828	1720.702271	16.787943
727.806946	1260.248413	4018.068115	1720.479492	16.688221
728.128662	1260.248413	4033.002930	1718.399048	16.523304
728.450256	1256.681885	4044.445557	1716.318481	16.487646
728.771790	1256.458984	4036.346680	1718.547485	16.622561
729.093323	1254.898560	4020.074463	1725.160522	17.006584
729.414795	1253.115356	4016.656982	1732.590820	17.350037
729.736145	1245.833740	4013.090088	1734.745728	17.667751
730.057495	1245.908081	4029.436768	1732.516602	17.481712
730.378845	1239.295044	4034.786377	1725.829468	17.404255
730.700134	1237.957642	4043.405273	1731.104858	17.578199
731.021301	1240.112427	4068.222656	1738.980957	17.639641
731.342468	1250.217651	4092.965576	1750.497681	17.598465
731.663574	1253.932739	4111.615723	1756.367676	17.581898
731.984680	1254.675781	4111.318359	1762.906372	17.791185
732.305664	1245.387817	4113.324219	1768.256226	18.231520
732.626648	1247.319702	4123.429688	1769.890991	18.169378
732.947571	1244.570557	4131.082520	1761.866211	17.921133
733.268433	1253.412598	4112.061035	1756.813477	17.609751
733.589233	1259.876953	4097.646484	1753.172729	17.383223
733.909973	1263.071899	4059.900391	1758.968384	17.730671
734.230713	1260.694214	4014.130127	1747.377075	17.675474
734.551331	1248.285767	3935.294922	1741.284180	18.347477
734.871948	1240.335327	3861.066406	1733.854004	18.831337
735.192505	1238.477783	3819.234131	1735.934570	19.275620
735.513062	1243.010254	3785.797852	1730.287476	19.163111
735.833435	1247.245483	3759.643311	1718.324707	18.750183
736.153931	1245.239258	3719.817139	1705.841797	18.613379
736.474304	1249.994629	3700.349854	1697.445679	18.260660
736.794617	1253.561279	3689.501709	1696.776978	18.194849
737.114807	1256.756226	3684.300537	1701.235229	18.309820
737.434998	1262.626221	3673.303711	1702.795532	18.259153
737.755188	1260.842896	3691.062256	1700.046387	18.072588
738.075256	1259.505371	3721.229248	1705.916382	18.134081
738.395325	1252.298096	3743.891357	1710.597168	18.393816
738.715271	1253.041138	3744.039795	1724.714844	18.935125
739.035278	1250.812012	3743.816650	1719.885132	18.815573
739.355164	1256.310425	3735.717773	1721.965698	18.780910
739.675049	1258.985229	3730.145264	1713.495117	18.392570
739.994873	1259.431030	3712.758545	1722.485718	18.874556
740.314636	1251.926514	3699.681396	1718.770508	19.072334
740.634277	1246.502441	3653.316406	1713.940918	19.421463
740.953979	1243.753296	3610.517822	1708.219604	19.624525
741.273499	1248.508667	3576.487061	1702.572632	19.504646
741.593140	1245.982300	3548.772217	1701.458008	19.779299
741.912598	1253.412720	3508.054443	1683.328125	19.068016
742.232117	1252.149536	3463.324219	1681.842163	19.432775
742.551453	1252.892456	3441.479248	1677.309570	19.392290
742.870850	1253.189575	3427.287109	1690.758423	20.126457
743.190063	1249.697510	3412.352295	1680.950562	19.940910
743.509338	1248.582886	3403.881836	1679.018555	19.971045
743.828552	1240.781128	3398.309326	1668.764771	19.836756
744.147705	1236.025757	3382.111328	1670.622437	20.250669
744.466797	1237.957642	3361.083984	1667.576172	20.235184
744.785828	1245.833862	3336.117920	1664.455200	20.027006
745.104858	1253.338257	3329.281982	1662.969238	19.732277
745.423706	1256.681885	3300.080811	1660.368652	19.755651
745.742615	1251.480713	3280.910889	1652.566895	19.763487
746.061401	1246.948364	3263.821045	1649.891968	19.978634
746.380249	1246.725464	3276.155518	1655.984863	20.166224
746.698975	1253.858521	3271.400146	1663.712280	20.314512
747.017639	1257.945190	3266.050049	1665.718384	20.306370
747.336304	1248.137207	3240.267578	1660.368530	20.692989
747.654907	1241.524292	3227.338623	1662.449097	21.196585
747.973389	1240.781128	3219.462891	1671.439819	21.764929
748.291931	1251.035034	3220.800049	1672.777222	21.410788
748.610352	1257.202026	3235.586182	1674.708984	21.103432
748.928711	1255.344482	3240.044678	1672.479980	21.017557
749.247070	1249.548950	3252.081299	1672.851440	21.138359
749.565308	1247.914185	3234.546143	1674.560425	21.475857
749.883545	1254.750000	3231.871094	1673.520142	21.180803
750.201782	1257.573486	3223.103516	1677.086914	21.343527
750.519836	1254.378540	3217.828125	1673.743164	21.358562
750.837952	1243.455933	3216.044922	1674.188965	21.835924
751.155884	1244.050415	3214.558594	1669.953613	21.613876
751.473877	1242.564453	3222.285889	1671.959839	21.689688
751.791809	1255.716064	3218.496338	1672.034180	21.210632
752.109619	1256.236206	3210.992188	1666.461426	20.986006
752.427490	1267.530151	3194.645264	1655.241699	20.118753
752.745300	1261.288696	3198.434570	1657.545044	20.455679
753.062988	1263.072021	3206.682373	1662.746216	20.563494
753.380615	1246.725464	3206.459717	1669.507813	21.573454
753.698303	1245.239258	3201.852783	1664.901001	21.448372
754.015808	1242.192871	3185.506104	1667.353027	21.878107
754.333374	1254.229858	3191.822021	1669.284790	21.421171
754.650757	1249.548828	3184.391602	1668.913452	21.674351
754.968262	1253.561157	3173.766357	1669.507813	21.661573
755.285583	1250.886230	3172.651611	1671.588379	21.891441
755.602905	1251.183472	3161.209229	1668.541992	21.850937
755.920105	1243.678833	3166.707764	1668.987915	22.116625
756.237305	1239.072144	3165.370361	1661.186035	21.913216
756.554443	1246.799683	3166.410889	1660.814453	21.567636
756.871582	1247.765503	3167.599365	1656.653320	21.298084
757.188599	1248.062866	3173.692139	1669.582031	21.889944
757.505615	1246.428101	3197.022705	1670.919556	21.762157
757.822510	1246.874023	3225.927002	1678.275757	21.798393
758.139465	1251.257690	3251.932861	1685.631470	21.711359
758.456238	1246.205200	3269.096680	1697.891602	22.328751
758.773010	1255.493042	3286.632080	1705.619141	22.161264
759.089783	1258.390869	3300.006592	1712.974976	22.265900
759.406433	1263.963501	3304.985107	1724.491821	22.563618
759.723145	1255.938843	3312.117920	1733.556641	23.228413
760.039673	1252.669556	3327.349854	1729.321655	22.974726
760.356201	1254.675659	3346.148438	1730.733398	22.761845
760.672668	1257.499268	3353.430420	1726.572266	22.380173
760.989136	1251.480835	3360.786377	1732.070679	22.784267
761.305481	1241.004150	3362.495361	1739.055054	23.476454
761.621826	1243.976196	3357.962891	1749.754761	23.925341
761.938049	1253.932739	3355.065186	1756.219116	23.905510
762.254333	1251.034912	3379.956299	1759.042603	23.862209
762.570496	1238.254883	3458.048828	1774.423218	24.153969
762.886597	1235.059937	3593.948486	1802.063843	24.036909
763.202637	1248.805908	3799.098389	1847.834351	23.488617
763.518677	1249.251587	4035.455078	1901.109375	23.395914
763.834656	1245.313599	4258.883301	1955.944824	23.581043
764.150574	1240.038086	4396.194824	2003.350098	24.184858
764.466370	1248.508667	4411.724121	2019.027954	24.358736
764.782288	1249.697388	4314.610352	1995.399780	24.330296
765.097961	1254.006958	4166.896484	1951.115234	23.931847
765.413696	1253.561157	4006.105469	1901.258179	23.530848
765.729309	1252.743896	3839.816162	1861.728882	23.539543
766.044861	1249.474487	3683.854736	1824.428833	23.618097
766.360474	1247.245483	3557.762939	1793.593262	23.646120
766.675903	1244.421997	3464.290039	1767.958862	23.584143
766.991394	1248.359985	3394.222656	1750.126343	23.382965
767.306763	1249.474609	3320.811279	1734.894165	23.435087
767.622131	1252.298096	3280.242188	1728.504272	23.482214
767.937378	1245.982422	3238.335693	1716.615845	23.621986
768.252625	1243.753296	3214.930420	1713.940796	23.853132
768.567810	1247.022583	3163.809814	1707.773804	24.037682
768.882996	1250.068970	3116.999023	1701.086426	24.158241
769.197998	1251.852173	3071.228516	1693.953491	24.299608
769.513062	1252.000854	3040.095703	1686.671509	24.309151
769.828064	1254.155640	3004.579102	1681.842163	24.433317
770.142944	1255.195801	2986.300537	1679.835815	24.530001
770.457825	1248.359985	2976.938232	1681.024780	25.030096
770.772705	1243.158813	2975.898438	1674.188843	24.875637
771.087402	1246.056763	2946.548828	1668.913452	24.866726
771.402100	1252.075073	2921.062744	1652.641113	24.000540
771.716736	1248.062866	2896.840576	1652.120972	24.506523
772.031372	1247.765503	2893.050781	1643.947632	24.079844
772.345947	1245.982300	2887.998047	1650.857788	24.657223
772.660461	1247.542603	2868.307861	1651.600952	24.930098
772.974854	1250.291870	2852.778564	1660.368774	25.590034
773.289246	1251.777954	2834.574219	1655.836304	25.528133
773.603638	1260.471313	2829.298828	1653.532837	25.054476
773.917908	1252.743774	2817.559326	1641.644409	24.852810
774.232178	1252.297974	2800.841064	1636.071655	24.782887
774.546265	1246.428101	2783.156982	1631.910645	25.084616
774.860474	1246.279663	2764.432617	1626.486450	25.044037
775.174561	1249.177368	2758.414307	1629.458618	25.196922
775.488586	1246.502441	2758.265625	1620.690796	24.751783
775.802551	1254.675659	2753.807373	1620.988159	24.434978
776.116516	1254.006958	2735.826172	1623.365845	24.926043
776.430359	1248.434204	2724.457764	1622.325684	25.330997
776.744202	1241.969971	2729.287354	1626.040894	25.823065
777.057922	1239.295044	2723.937744	1623.217163	25.859564
777.371704	1247.245483	2730.253174	1638.152222	26.359051
777.685303	1249.400269	2714.278320	1631.241821	26.066439
777.998962	1249.846069	2726.166992	1625.074829	25.416477
778.312500	1251.480835	2697.931885	1613.260742	25.011555
778.626038	1251.109253	2694.662354	1617.421509	25.375738
778.939453	1246.874023	2677.572998	1616.009766	25.801077
779.252869	1247.542725	2693.919189	1617.347290	25.567656
779.566223	1244.793457	2693.845215	1615.712524	25.597364
779.879578	1253.858398	2693.844971	1616.232788	25.165123
780.192749	1254.229858	2687.381104	1613.557739	25.072573
780.505920	1261.734375	2680.545166	1607.836548	24.393822
780.819031	1265.375366	2680.916504	1610.437134	24.376669
781.132141	1259.431030	2672.148682	1607.910767	24.667332
781.445190	1252.595337	2675.195313	1618.981934	25.754717
781.758118	1247.616943	2656.248047	1613.483398	25.973192
782.071045	1255.641724	2644.582764	1608.282227	25.389162
782.383911	1257.722168	2628.458740	1599.588867	24.940365
782.696838	1246.799683	2617.610596	1594.387695	25.356379
783.009583	1250.143311	2607.208008	1601.595215	25.897947
783.322266	1252.520874	2584.545898	1597.954468	25.932966
783.634888	1264.186523	2577.784180	1592.084351	24.961815
783.947510	1254.601440	2577.189697	1578.486938	24.488762
784.260132	1254.601440	2574.960693	1573.657349	24.164326
784.572571	1252.297974	2559.059814	1576.852417	24.836542
784.885010	1251.257813	2549.400635	1577.149536	25.104458
785.197449	1248.508545	2543.456299	1577.298218	25.390188
785.509766	1253.486938	2531.642334	1577.892578	25.380766
785.822083	1258.167969	2517.079102	1580.939087	25.638912
786.134277	1256.904785	2512.323486	1579.304321	25.680639
786.446533	1251.406372	2522.948975	1579.750122	25.822474
786.758606	1254.081421	2530.007813	1578.115601	25.395992
787.070740	1251.852173	2538.106689	1583.093750	25.752413
787.382690	1259.356812	2545.685547	1589.780884	25.687374
787.694641	1254.452759	2565.004150	1593.198853	25.847601
788.006653	1259.654053	2594.502197	1603.304199	25.744513
788.318481	1259.208130	2641.759033	1615.266968	25.753759
788.630310	1259.505493	2677.275635	1634.957153	26.481842
788.942017	1258.390869	2703.504639	1644.839355	26.741734
789.253784	1249.548828	2712.197998	1646.919922	27.167902
789.565430	1254.675659	2702.984375	1640.381226	26.631447
789.877014	1257.796387	2677.721436	1631.093384	26.289909
790.188538	1255.047241	2636.854980	1626.040649	26.848410
790.500061	1253.784058	2601.115234	1618.981934	27.105280
790.811462	1250.291870	2567.158936	1610.585815	27.359932
791.122925	1252.000854	2541.153076	1595.650879	26.657055
791.434204	1249.400146	2520.051025	1586.808960	26.554014
791.745483	1240.260986	2497.834717	1584.282593	27.355980
792.056702	1240.558228	2486.912109	1581.979126	27.393576
792.367920	1243.158813	2467.593506	1579.898804	27.501671
792.678955	1252.149414	2465.364258	1575.663452	26.665850
792.990112	1253.412720	2447.680420	1574.326050	26.871140
793.301086	1256.384766	2444.485107	1570.610962	26.447783
793.612122	1258.093750	2443.519287	1569.347656	26.256723
793.922974	1257.796509	2437.129150	1572.542847	26.688513
794.233826	1251.034790	2429.996094	1574.400391	27.428007
794.544556	1250.960571	2420.634033	1571.353882	27.391689
794.855286	1245.685059	2431.110840	1569.050659	27.278435
795.166016	1252.446655	2436.237549	1560.505737	26.023100
795.476624	1250.737671	2450.801025	1561.546021	25.899328
795.787292	1248.731567	2472.125732	1566.152832	25.945951
796.097778	1240.335449	2504.001709	1586.883179	27.423992
796.408264	1236.843140	2522.651855	1599.663208	28.217266
796.718689	1240.409668	2534.317383	1605.681763	28.230150
797.029053	1243.976196	2542.936523	1600.554810	27.451078
797.339355	1243.455933	2536.174561	1603.304077	27.836540
797.649658	1242.118530	2522.205811	1592.381470	27.362427
797.959839	1241.375610	2490.850098	1587.849121	27.729538
798.270020	1242.713013	2476.509766	1570.462280	26.564283
798.580078	1245.387817	2456.447998	1572.839966	27.038471
798.890137	1245.536499	2457.859863	1572.617188	26.979658
799.200195	1242.935791	2438.021240	1576.703735	27.928375
799.510071	1240.260864	2433.860107	1572.468384	27.832417
799.820007	1243.753174	2414.912842	1566.524292	27.559959
800.129883	1245.462158	2397.897461	1565.335327	27.756281
800.439575	1250.514771	2378.950439	1564.666626	27.839590
800.749329	1255.270142	2359.111572	1566.672852	28.210819
801.058960	1260.917114	2365.872803	1565.186890	27.536831
801.368591	1261.363037	2357.031006	1557.310913	27.010727
801.678162	1250.514771	2361.043213	1554.338501	27.358482
801.987671	1244.421997	2343.730713	1557.087891	28.442047
802.297119	1247.394043	2330.058838	1561.694702	29.030283
802.606506	1254.824341	2309.774414	1560.431519	28.968876
802.915894	1259.059692	2309.922852	1560.803101	28.713863
803.225159	1259.802612	2308.511230	1563.106445	28.921650
803.534424	1255.567383	2315.049805	1568.679077	29.553270
803.843628	1253.412598	2312.597900	1562.140503	29.147676
804.152771	1246.948242	2319.136475	1559.837036	29.182264
804.461792	1252.520874	2314.529541	1555.601929	28.538473
804.770874	1253.041138	2306.356445	1553.224121	28.498873
805.079773	1256.236084	2305.910889	1557.682251	28.718054
805.388733	1256.384644	2319.879639	1558.202271	28.379787
805.697571	1255.195801	2337.786377	1568.976196	28.984217
806.006470	1250.663452	2359.408447	1568.901978	28.702589
806.315125	1241.746948	2371.742920	1572.988647	29.313530
806.623901	1240.855469	2378.281494	1573.434204	29.239592
806.932495	1244.719238	2371.594238	1571.576782	29.005661
807.241150	1249.177368	2349.229004	1569.719238	29.138802
807.549622	1256.161743	2335.706055	1555.973267	27.772045
807.858154	1256.013184	2325.972412	1543.713257	26.888882
808.166565	1252.818237	2317.576172	1529.967285	26.029301
808.474915	1245.982300	2304.201660	1530.859009	26.920383
808.783264	1247.319824	2283.842773	1530.784668	27.347668
809.091492	1254.750000	2273.366211	1531.230469	27.142752
809.399719	1258.167969	2254.790283	1529.224243	27.197493
809.707825	1261.288574	2233.688232	1530.487305	27.683960
810.015930	1254.601440	2214.444092	1532.419312	28.944105
810.323975	1258.242188	2212.437744	1532.493652	28.741642
810.632080	1249.251587	2212.883789	1522.834351	28.390787
810.939880	1251.183472	2209.540039	1518.227539	27.864792
811.247864	1246.576660	2196.165527	1509.534180	27.691723
811.555664	1249.028687	2180.933350	1516.072754	28.655727
811.863464	1252.520996	2172.462891	1517.112915	28.761808
812.171143	1250.366211	2157.602539	1524.171753	30.180178
812.478882	1253.115479	2158.865479	1523.280151	29.827730
812.786438	1245.759399	2165.329590	1521.571167	29.993553
813.094055	1245.833862	2180.115967	1512.208984	28.511209
813.401489	1246.576782	2180.413330	1511.317383	28.349779
813.708984	1248.583008	2172.685791	1514.289551	28.752920
814.016357	1253.709839	2163.397705	1517.484497	28.996172
814.323730	1251.629395	2160.277100	1510.276978	28.465111
814.630981	1254.453003	2156.859375	1498.165649	27.006973
814.938232	1252.669556	2148.314697	1495.193726	27.078154
815.245361	1251.406372	2137.540771	1498.760254	27.913811
815.552490	1250.514771	2132.413818	1501.138062	28.418592
815.859619	1249.697510	2134.048584	1500.840820	28.398598
816.166565	1257.424927	2140.587158	1499.429077	27.402004
816.473572	1259.133911	2157.379639	1502.846802	27.132095
816.780457	1256.904785	2166.370361	1508.122437	27.622557
817.087341	1255.493042	2186.431885	1513.174805	27.679773
817.394043	1255.493042	2191.113037	1522.537109	28.541937
817.700806	1246.353882	2212.289063	1524.543335	28.800013
818.007507	1249.920288	2214.518311	1523.057251	28.316143
818.314209	1244.570435	2212.511963	1527.589722	29.239296
818.620667	1253.858398	2217.118896	1534.202637	29.103678
818.927246	1239.517944	2239.929688	1543.490601	30.384754
819.233704	1241.226929	2290.009766	1549.657593	29.408440
819.540161	1240.037964	2332.956787	1562.809082	29.532946
819.846497	1250.737671	2397.748779	1592.456055	29.792072
820.152832	1253.858398	2468.113525	1618.016235	29.990225
820.458984	1259.876953	2563.072510	1647.662964	29.756548
820.765259	1259.653931	2655.430420	1662.820679	28.884764
821.071350	1264.260864	2761.757813	1698.263062	28.981842
821.377502	1265.969849	2929.236084	1748.343140	29.001568
821.683472	1263.443481	3259.065674	1852.886841	29.536821
821.989441	1262.254639	3916.422119	2060.934570	30.091543
822.295349	1255.270142	5003.693848	2395.593994	30.421423
822.601196	1257.796387	6422.949707	2841.484619	30.661011
822.907043	1245.759399	7770.726563	3258.768555	30.850870
823.212769	1251.034912	8622.682617	3530.196533	30.917942
823.518494	1249.994629	8667.188477	3545.800049	30.952480
823.824097	1252.000977	8045.498535	3336.563721	30.684677
824.129700	1248.880127	6992.332031	3012.157471	30.700653
824.435242	1249.623047	5905.282715	2684.854248	30.827665
824.740723	1257.053345	4974.492676	2411.345947	31.050743
825.046082	1259.431152	4302.275879	2205.899170	31.104710
825.351501	1255.344604	3844.050781	2059.448486	31.062000
825.656799	1252.743774	3543.571045	1965.158325	31.098574
825.962036	1245.833740	3344.216797	1902.372559	31.287844
826.267212	1245.462280	3259.734619	1874.360352	31.222097
826.572449	1243.901978	3253.567627	1877.406860	31.522900
826.877502	1254.229980	3404.178955	1924.515015	31.176788
827.182495	1258.688110	3678.579102	2011.820435	31.122570
827.487488	1256.830566	4028.322021	2122.828857	31.246653
827.792419	1248.137207	4316.988281	2212.883789	31.436735
828.097290	1239.889526	4435.277832	2246.022705	31.487041
828.402100	1242.564453	4323.824219	2212.512207	31.478935
828.706848	1245.833618	4012.570068	2116.364502	31.464180
829.011597	1252.149414	3619.954346	1995.325562	31.386713
829.316223	1249.697388	3244.131104	1871.462524	31.175022
829.620789	1242.713013	2938.152344	1775.983521	31.453234
829.925354	1239.220825	2691.095947	1706.807983	32.205742
830.229797	1246.056519	2515.518555	1660.740234	32.666100
830.534302	1252.966675	2402.801514	1623.588867	32.232647
830.838562	1251.257690	2320.994141	1587.477661	31.430168
831.142944	1246.725220	2267.347412	1558.796875	30.576609
831.447144	1244.421997	2216.078369	1540.964233	30.519249
831.751404	1243.307495	2193.490723	1530.933228	30.270555
832.055542	1247.394043	2186.283447	1524.914673	29.558393
832.359619	1249.994751	2193.490723	1531.973511	29.886589
832.663635	1246.725464	2209.837158	1540.666992	30.519983
832.967651	1242.267212	2247.880127	1565.929810	32.185604
833.271545	1239.963745	2348.337402	1599.068970	32.399292
833.575439	1242.415649	2518.639404	1659.105469	32.650215
833.879211	1241.375610	2765.175781	1739.575562	32.694572
834.183044	1241.375610	3020.182861	1820.045288	32.531330
834.486694	1246.279419	3213.889893	1881.865234	32.302422
834.790344	1249.771729	3299.115234	1908.985718	32.167080
835.093933	1249.994629	3252.304688	1890.484253	31.987535
835.397522	1245.982300	3114.101563	1840.181274	31.807337
835.700928	1247.839966	2902.338623	1765.209595	31.270477
836.004395	1250.440552	2681.362305	1696.628296	31.181841
836.307739	1255.195923	2493.599365	1634.436890	30.623379
836.611023	1249.920410	2356.065186	1594.164917	31.121107
836.914307	1255.121582	2269.427979	1563.626465	30.415354
837.217529	1257.424927	2187.695068	1540.295410	30.407349
837.520691	1259.951294	2126.395264	1516.444214	29.602943
837.823730	1247.914185	2072.674561	1489.620972	29.306305
838.126831	1243.530396	2037.529297	1473.125854	28.916346
838.429749	1242.713013	2000.452148	1456.779175	28.250641
838.732727	1245.759399	1966.644165	1454.847290	29.004343
839.035522	1250.068970	1939.375366	1455.367554	29.783358
839.338379	1252.000854	1921.839844	1453.807007	30.127562
839.641113	1256.533325	1928.675781	1450.537720	28.863583
839.943848	1255.195801	1962.929199	1459.751343	28.902908
840.246460	1251.703613	2025.789429	1471.342651	28.373991
840.549072	1245.388062	2084.116943	1494.896484	29.748400
840.851563	1249.400269	2123.869141	1508.716797	29.654175
841.154053	1241.004028	2128.104248	1513.472168	30.714472
841.456482	1251.257813	2104.253174	1504.258423	29.660255
841.758850	1245.610962	2055.807861	1487.317505	29.833061
842.061157	1258.167969	1990.718628	1470.822388	29.029312
842.363403	1258.093628	1929.121582	1456.556274	29.575912
842.665588	1257.350586	1879.784546	1437.683472	28.972212
842.967712	1255.567383	1842.558960	1427.726929	29.329134
843.269775	1255.270264	1815.438477	1419.182007	29.261164
843.571777	1251.777954	1784.825684	1409.225220	29.537180
843.873840	1247.022583	1766.250000	1398.377075	29.149942
844.175659	1237.288940	1748.640259	1390.055298	29.875029
844.477600	1242.787354	1741.655884	1390.352539	29.579975
844.779297	1246.056641	1740.838501	1394.513306	30.004469
845.081116	1255.121460	1729.841797	1386.785767	27.735130
845.382751	1257.202026	1720.628296	1376.234985	25.685415
845.684387	1263.369141	1705.916382	1362.711792	22.447920
845.985962	1259.505493	1700.417847	1363.900757	23.677101
846.287537	1254.527222	1683.551147	1367.021484	26.220976
846.588989	1251.777954	1671.216797	1369.919312	28.166527
846.890381	1248.285767	1658.139526	1363.603516	28.136316
847.191711	1250.514771	1659.848633	1363.603516	27.627508
847.493042	1249.474487	1652.938477	1370.513672	29.999996
847.794250	1250.663452	1658.659668	1369.399048	29.102131
848.095459	1246.502319	1652.195190	1364.346558	29.047647
848.396606	1243.158691	1660.888672	1354.018555	26.538641
848.697693	1247.839966	1655.687500	1350.526245	25.177614
848.998657	1251.703613	1654.573242	1357.213501	26.189587
849.299622	1251.703735	1653.384155	1365.089478	28.227848
849.600464	1254.229980	1654.127075	1371.182251	29.245592
849.901367	1255.938843	1659.551270	1369.250488	28.074369
850.202087	1254.081299	1655.687500	1364.792358	27.567070
850.502808	1248.657227	1651.452271	1364.569458	28.776976
850.803467	1248.062866	1643.204712	1357.807739	27.773539
851.104065	1246.948242	1639.192261	1355.281616	27.618872
851.404663	1247.542603	1632.876587	1348.743042	26.263046
851.705139	1242.267212	1629.235840	1350.154785	27.880186
852.005615	1251.183472	1625.000488	1353.646851	27.410036
852.306030	1254.898560	1622.920044	1351.417847	26.226536
852.606384	1256.087524	1616.604370	1353.646851	27.060963
852.906616	1256.904785	1612.443359	1349.560181	26.060575
853.206909	1251.257813	1609.471191	1350.451782	27.691307
853.506958	1257.722046	1613.186157	1345.102173	24.581984
853.807129	1255.344360	1612.146118	1343.393188	24.677240
854.107178	1257.053345	1606.499023	1349.337524	26.408733
854.407166	1255.790161	1598.846069	1351.863770	28.005234
854.707092	1251.034912	1593.050293	1352.606689	29.698015
855.007019	1250.291870	1593.941895	1352.160889	29.643246
855.306763	1244.570679	1588.071899	1356.619141	32.619522
855.606567	1247.319824	1579.155640	1354.910034	32.422726
855.906250	1244.199097	1572.691406	1356.916260	34.313488
856.205933	1249.771851	1577.966797	1351.046387	30.858042
856.505493	1251.034912	1588.740723	1351.492310	29.747015
856.805054	1259.133789	1587.997681	1345.919556	26.389570
857.104492	1259.505493	1584.951538	1350.897705	28.082140
857.403931	1259.951294	1582.648071	1351.863647	28.482576
857.703308	1253.486816	1587.329102	1345.696655	27.620779
858.002563	1248.062866	1593.273438	1333.213745	24.666359
858.301819	1246.130981	1592.827515	1327.195190	23.381891
858.601013	1246.725342	1587.849243	1330.687378	24.613356
858.900208	1252.372437	1579.750122	1331.281860	24.103483
859.199219	1245.908081	1579.304321	1325.040405	23.735218
859.498291	1251.480835	1580.716187	1323.405762	21.846052
859.797302	1251.035034	1580.047363	1328.532715	23.554644
860.096191	1257.722168	1572.839966	1328.309692	22.400360
860.395020	1251.926636	1570.387817	1333.585205	25.641609
860.693787	1246.130981	1566.821411	1333.585205	27.270605
860.992554	1243.753052	1563.775024	1335.294067	28.604603
861.291260	1247.617065	1560.431274	1327.195190	25.439421
861.589844	1246.279419	1555.007324	1325.411987	25.631817
861.888428	1251.703613	1553.744263	1331.356079	26.371439
862.186890	1246.353882	1550.475098	1330.761719	27.754669
862.485413	1254.824341	1557.087891	1328.681274	24.434614
862.783813	1255.790405	1552.704102	1334.402588	26.476442
863.082153	1260.025513	1548.914551	1341.684204	28.266455
863.380371	1252.520996	1549.731934	1346.068115	31.474993
863.678589	1247.171265	1556.790649	1341.832886	30.573545
863.976746	1247.988647	1568.753540	1339.603882	28.561491
864.274902	1252.223633	1572.765747	1337.597534	26.634222
864.572937	1252.075195	1569.570679	1334.922729	26.094082
864.870911	1254.378540	1563.998047	1341.312622	28.077715
865.168884	1254.527100	1565.484009	1341.461304	27.956993
865.466736	1252.223755	1568.604614	1345.325073	29.426975
865.764587	1252.000854	1563.329224	1342.501587	29.069221
866.062317	1252.000854	1554.487183	1351.417847	32.866608
866.360107	1254.081421	1550.028931	1343.467407	30.203325
866.657715	1251.183472	1551.738159	1336.334351	28.331244
866.955322	1243.381714	1548.245728	1321.696777	25.688524
867.252808	1247.988525	1551.292358	1321.771118	24.326298
867.550293	1249.251587	1553.447144	1323.405762	24.377140
867.847717	1252.818237	1553.001099	1328.383911	25.173214
868.145081	1248.657227	1551.069336	1323.182739	24.643694
868.442383	1246.948242	1542.673218	1323.331543	25.829168
868.739624	1252.075073	1537.769043	1319.393433	23.563101
869.036804	1253.486938	1536.505981	1327.938354	26.306150
869.333984	1254.304199	1536.728882	1323.628662	24.546177
869.631042	1258.167969	1541.781372	1318.798950	21.378038
869.928101	1261.065796	1538.140625	1323.777344	22.633434
870.224976	1256.904907	1536.505859	1325.932129	24.687763
870.521851	1256.756226	1538.586304	1338.637939	29.053576
870.818726	1253.486938	1544.827759	1334.179565	27.696987
871.115479	1253.858521	1549.137329	1339.306519	28.938074
871.412231	1250.291870	1550.846313	1331.504761	27.021025
871.708862	1252.743896	1547.502808	1329.127075	25.913780
872.005493	1250.737671	1549.286011	1324.743164	24.788446
872.302063	1247.988525	1549.434570	1329.275635	26.965725
872.598572	1250.217651	1541.781616	1326.229126	26.070257
872.895020	1253.189697	1544.604980	1328.235352	25.752134
873.191406	1251.852295	1543.936157	1321.622437	23.887024
873.487671	1244.793457	1550.251953	1335.071411	29.554901
873.783997	1243.456055	1540.815430	1333.733887	30.359840
874.080200	1250.068970	1538.363403	1336.557373	30.000025
874.376343	1251.703613	1546.388184	1326.675171	25.441290
874.672424	1253.041016	1553.298340	1328.086792	24.993820
874.968445	1249.103027	1548.394409	1337.077515	29.394260
875.264465	1245.387939	1541.930054	1335.219849	30.293137
875.560364	1245.387939	1544.456421	1332.247681	29.043428
875.856201	1243.530273	1544.456421	1327.715210	27.975281
876.152039	1252.000854	1544.159180	1331.727661	27.288904
876.447754	1248.285645	1541.484253	1330.613159	28.079094
876.743469	1246.353760	1548.988770	1330.390137	27.768227
877.039063	1243.158813	1544.233398	1327.492310	28.010832
877.334595	1250.143433	1543.713257	1328.458252	26.676727
877.630127	1249.920410	1541.112793	1327.863892	26.767006
877.925537	1248.731567	1553.595581	1333.213745	27.711430
878.221008	1251.332031	1558.499634	1334.699829	27.140818
878.516296	1254.972778	1561.100220	1336.111572	26.504908
878.811646	1252.446655	1565.707031	1336.854492	26.944944
879.106812	1248.582886	1583.316772	1346.067993	29.123167
879.401978	1244.942017	1604.715820	1355.727295	30.793036
879.697083	1243.381714	1621.359741	1364.717896	32.101383
879.992126	1246.874023	1653.086914	1375.566406	31.681019
880.287109	1251.035034	1704.281372	1380.321777	28.524609
880.582031	1254.675659	1780.813110	1402.166626	28.032782
880.876892	1251.406372	1904.675903	1440.878418	29.003656
881.171753	1256.830444	2150.097900	1540.295410	31.733494
881.466492	1257.202026	2565.821533	1679.835938	32.296165
881.761230	1255.121582	3110.906250	1857.122192	32.439140
882.055786	1247.171265	3673.526611	2030.247559	32.273766
882.350403	1242.936035	4038.873047	2148.983398	32.405857
882.644958	1243.381836	4124.395996	2179.893311	32.506313
882.939453	1241.375610	3908.545898	2108.191162	32.499443
883.233826	1242.638794	3533.837158	1986.631836	32.471786
883.528137	1246.799683	3113.135498	1858.013794	32.749416
883.822449	1252.966797	2748.234619	1738.015015	32.438885
884.116577	1251.555054	2462.391846	1641.272827	32.185822
884.410828	1252.966919	2254.938965	1565.186646	31.160522
884.704956	1249.028809	2096.005371	1510.648804	30.888693
884.999023	1255.790405	1979.127319	1468.073242	29.347712
885.292969	1249.474609	1894.645142	1433.893921	28.584583
885.586914	1251.480835	1824.057617	1413.386353	28.276648
885.880798	1248.434326	1779.252930	1397.559937	28.093515
886.174622	1246.576660	1744.999390	1391.764282	29.129414
886.468384	1244.644897	1721.965454	1388.643555	30.168123
886.762085	1250.291870	1708.813965	1390.946899	30.675737
887.055664	1250.886230	1692.764526	1380.619019	29.359394
887.349304	1252.595337	1673.371582	1379.132813	30.072390
887.642822	1248.731567	1635.180054	1365.535522	30.224974
887.936340	1248.137085	1602.561035	1353.572632	29.748426
888.229736	1244.867798	1578.041016	1338.637817	28.144526
888.523071	1243.381836	1568.381836	1332.173462	27.320499
888.816284	1245.759399	1554.264282	1333.659546	28.492304
889.109619	1260.174194	1542.301636	1330.093018	24.782709
889.402710	1263.666382	1532.642212	1331.207642	25.110531
889.695862	1263.740601	1521.422485	1331.430542	26.268801
889.988892	1248.582886	1512.803345	1331.058960	31.214870
890.281921	1238.031982	1501.286499	1329.424316	34.716339
>>>>>End Processed Spectral Data<<<<<
